Angle,Reflectance
63.000,0.997353
63.001,0.997350
63.002,0.997348
63.003,0.997345
63.004,0.997342
63.005,0.997339
63.006,0.997336
63.007,0.997333
63.008,0.997330
63.009,0.997327
63.010,0.997324
63.011,0.997322
63.012,0.997319
63.013,0.997316
63.014,0.997313
63.015,0.997310
63.016,0.997307
63.017,0.997304
63.018,0.997301
63.019,0.997298
63.020,0.997295
63.021,0.997292
63.022,0.997289
63.023,0.997286
63.024,0.997283
63.025,0.997280
63.026,0.997277
63.027,0.997274
63.028,0.997271
63.029,0.997268
63.030,0.997265
63.031,0.997262
63.032,0.997259
63.033,0.997256
63.034,0.997253
63.035,0.997250
63.036,0.997246
63.037,0.997243
63.038,0.997240
63.039,0.997237
63.040,0.997234
63.041,0.997231
63.042,0.997228
63.043,0.997225
63.044,0.997222
63.045,0.997218
63.046,0.997215
63.047,0.997212
63.048,0.997209
63.049,0.997206
63.050,0.997203
63.051,0.997199
63.052,0.997196
63.053,0.997193
63.054,0.997190
63.055,0.997186
63.056,0.997183
63.057,0.997180
63.058,0.997177
63.059,0.997174
63.060,0.997170
63.061,0.997167
63.062,0.997164
63.063,0.997160
63.064,0.997157
63.065,0.997154
63.066,0.997151
63.067,0.997147
63.068,0.997144
63.069,0.997141
63.070,0.997137
63.071,0.997134
63.072,0.997130
63.073,0.997127
63.074,0.997124
63.075,0.997120
63.076,0.997117
63.077,0.997114
63.078,0.997110
63.079,0.997107
63.080,0.997103
63.081,0.997100
63.082,0.997097
63.083,0.997093
63.084,0.997090
63.085,0.997086
63.086,0.997083
63.087,0.997079
63.088,0.997076
63.089,0.997072
63.090,0.997069
63.091,0.997065
63.092,0.997062
63.093,0.997058
63.094,0.997055
63.095,0.997051
63.096,0.997048
63.097,0.997044
63.098,0.997040
63.099,0.997037
63.100,0.997033
63.101,0.997030
63.102,0.997026
63.103,0.997022
63.104,0.997019
63.105,0.997015
63.106,0.997012
63.107,0.997008
63.108,0.997004
63.109,0.997001
63.110,0.996997
63.111,0.996993
63.112,0.996989
63.113,0.996986
63.114,0.996982
63.115,0.996978
63.116,0.996975
63.117,0.996971
63.118,0.996967
63.119,0.996963
63.120,0.996960
63.121,0.996956
63.122,0.996952
63.123,0.996948
63.124,0.996944
63.125,0.996941
63.126,0.996937
63.127,0.996933
63.128,0.996929
63.129,0.996925
63.130,0.996921
63.131,0.996917
63.132,0.996914
63.133,0.996910
63.134,0.996906
63.135,0.996902
63.136,0.996898
63.137,0.996894
63.138,0.996890
63.139,0.996886
63.140,0.996882
63.141,0.996878
63.142,0.996874
63.143,0.996870
63.144,0.996866
63.145,0.996862
63.146,0.996858
63.147,0.996854
63.148,0.996850
63.149,0.996846
63.150,0.996842
63.151,0.996838
63.152,0.996834
63.153,0.996830
63.154,0.996826
63.155,0.996822
63.156,0.996817
63.157,0.996813
63.158,0.996809
63.159,0.996805
63.160,0.996801
63.161,0.996797
63.162,0.996792
63.163,0.996788
63.164,0.996784
63.165,0.996780
63.166,0.996776
63.167,0.996771
63.168,0.996767
63.169,0.996763
63.170,0.996758
63.171,0.996754
63.172,0.996750
63.173,0.996746
63.174,0.996741
63.175,0.996737
63.176,0.996733
63.177,0.996728
63.178,0.996724
63.179,0.996719
63.180,0.996715
63.181,0.996711
63.182,0.996706
63.183,0.996702
63.184,0.996697
63.185,0.996693
63.186,0.996688
63.187,0.996684
63.188,0.996679
63.189,0.996675
63.190,0.996670
63.191,0.996666
63.192,0.996661
63.193,0.996657
63.194,0.996652
63.195,0.996648
63.196,0.996643
63.197,0.996638
63.198,0.996634
63.199,0.996629
63.200,0.996625
63.201,0.996620
63.202,0.996615
63.203,0.996611
63.204,0.996606
63.205,0.996601
63.206,0.996597
63.207,0.996592
63.208,0.996587
63.209,0.996582
63.210,0.996578
63.211,0.996573
63.212,0.996568
63.213,0.996563
63.214,0.996558
63.215,0.996554
63.216,0.996549
63.217,0.996544
63.218,0.996539
63.219,0.996534
63.220,0.996529
63.221,0.996524
63.222,0.996519
63.223,0.996514
63.224,0.996509
63.225,0.996505
63.226,0.996500
63.227,0.996495
63.228,0.996490
63.229,0.996485
63.230,0.996480
63.231,0.996474
63.232,0.996469
63.233,0.996464
63.234,0.996459
63.235,0.996454
63.236,0.996449
63.237,0.996444
63.238,0.996439
63.239,0.996434
63.240,0.996428
63.241,0.996423
63.242,0.996418
63.243,0.996413
63.244,0.996408
63.245,0.996402
63.246,0.996397
63.247,0.996392
63.248,0.996386
63.249,0.996381
63.250,0.996376
63.251,0.996370
63.252,0.996365
63.253,0.996360
63.254,0.996354
63.255,0.996349
63.256,0.996344
63.257,0.996338
63.258,0.996333
63.259,0.996327
63.260,0.996322
63.261,0.996316
63.262,0.996311
63.263,0.996305
63.264,0.996300
63.265,0.996294
63.266,0.996289
63.267,0.996283
63.268,0.996277
63.269,0.996272
63.270,0.996266
63.271,0.996260
63.272,0.996255
63.273,0.996249
63.274,0.996243
63.275,0.996238
63.276,0.996232
63.277,0.996226
63.278,0.996220
63.279,0.996215
63.280,0.996209
63.281,0.996203
63.282,0.996197
63.283,0.996191
63.284,0.996185
63.285,0.996179
63.286,0.996174
63.287,0.996168
63.288,0.996162
63.289,0.996156
63.290,0.996150
63.291,0.996144
63.292,0.996138
63.293,0.996132
63.294,0.996126
63.295,0.996120
63.296,0.996114
63.297,0.996107
63.298,0.996101
63.299,0.996095
63.300,0.996089
63.301,0.996083
63.302,0.996077
63.303,0.996070
63.304,0.996064
63.305,0.996058
63.306,0.996052
63.307,0.996045
63.308,0.996039
63.309,0.996033
63.310,0.996026
63.311,0.996020
63.312,0.996014
63.313,0.996007
63.314,0.996001
63.315,0.995994
63.316,0.995988
63.317,0.995981
63.318,0.995975
63.319,0.995968
63.320,0.995962
63.321,0.995955
63.322,0.995949
63.323,0.995942
63.324,0.995935
63.325,0.995929
63.326,0.995922
63.327,0.995915
63.328,0.995909
63.329,0.995902
63.330,0.995895
63.331,0.995888
63.332,0.995882
63.333,0.995875
63.334,0.995868
63.335,0.995861
63.336,0.995854
63.337,0.995847
63.338,0.995840
63.339,0.995833
63.340,0.995826
63.341,0.995819
63.342,0.995812
63.343,0.995805
63.344,0.995798
63.345,0.995791
63.346,0.995784
63.347,0.995777
63.348,0.995770
63.349,0.995763
63.350,0.995756
63.351,0.995748
63.352,0.995741
63.353,0.995734
63.354,0.995727
63.355,0.995719
63.356,0.995712
63.357,0.995705
63.358,0.995697
63.359,0.995690
63.360,0.995682
63.361,0.995675
63.362,0.995667
63.363,0.995660
63.364,0.995652
63.365,0.995645
63.366,0.995637
63.367,0.995630
63.368,0.995622
63.369,0.995614
63.370,0.995607
63.371,0.995599
63.372,0.995591
63.373,0.995584
63.374,0.995576
63.375,0.995568
63.376,0.995560
63.377,0.995552
63.378,0.995544
63.379,0.995537
63.380,0.995529
63.381,0.995521
63.382,0.995513
63.383,0.995505
63.384,0.995497
63.385,0.995489
63.386,0.995481
63.387,0.995472
63.388,0.995464
63.389,0.995456
63.390,0.995448
63.391,0.995440
63.392,0.995431
63.393,0.995423
63.394,0.995415
63.395,0.995407
63.396,0.995398
63.397,0.995390
63.398,0.995381
63.399,0.995373
63.400,0.995365
63.401,0.995356
63.402,0.995347
63.403,0.995339
63.404,0.995330
63.405,0.995322
63.406,0.995313
63.407,0.995304
63.408,0.995296
63.409,0.995287
63.410,0.995278
63.411,0.995269
63.412,0.995261
63.413,0.995252
63.414,0.995243
63.415,0.995234
63.416,0.995225
63.417,0.995216
63.418,0.995207
63.419,0.995198
63.420,0.995189
63.421,0.995180
63.422,0.995171
63.423,0.995161
63.424,0.995152
63.425,0.995143
63.426,0.995134
63.427,0.995124
63.428,0.995115
63.429,0.995106
63.430,0.995096
63.431,0.995087
63.432,0.995077
63.433,0.995068
63.434,0.995058
63.435,0.995049
63.436,0.995039
63.437,0.995030
63.438,0.995020
63.439,0.995010
63.440,0.995001
63.441,0.994991
63.442,0.994981
63.443,0.994971
63.444,0.994961
63.445,0.994951
63.446,0.994941
63.447,0.994931
63.448,0.994921
63.449,0.994911
63.450,0.994901
63.451,0.994891
63.452,0.994881
63.453,0.994871
63.454,0.994861
63.455,0.994850
63.456,0.994840
63.457,0.994830
63.458,0.994819
63.459,0.994809
63.460,0.994798
63.461,0.994788
63.462,0.994777
63.463,0.994767
63.464,0.994756
63.465,0.994746
63.466,0.994735
63.467,0.994724
63.468,0.994713
63.469,0.994703
63.470,0.994692
63.471,0.994681
63.472,0.994670
63.473,0.994659
63.474,0.994648
63.475,0.994637
63.476,0.994626
63.477,0.994615
63.478,0.994603
63.479,0.994592
63.480,0.994581
63.481,0.994570
63.482,0.994558
63.483,0.994547
63.484,0.994535
63.485,0.994524
63.486,0.994512
63.487,0.994501
63.488,0.994489
63.489,0.994478
63.490,0.994466
63.491,0.994454
63.492,0.994442
63.493,0.994431
63.494,0.994419
63.495,0.994407
63.496,0.994395
63.497,0.994383
63.498,0.994371
63.499,0.994359
63.500,0.994346
63.501,0.994334
63.502,0.994322
63.503,0.994310
63.504,0.994297
63.505,0.994285
63.506,0.994273
63.507,0.994260
63.508,0.994248
63.509,0.994235
63.510,0.994222
63.511,0.994210
63.512,0.994197
63.513,0.994184
63.514,0.994171
63.515,0.994158
63.516,0.994145
63.517,0.994132
63.518,0.994119
63.519,0.994106
63.520,0.994093
63.521,0.994080
63.522,0.994067
63.523,0.994053
63.524,0.994040
63.525,0.994027
63.526,0.994013
63.527,0.994000
63.528,0.993986
63.529,0.993973
63.530,0.993959
63.531,0.993945
63.532,0.993931
63.533,0.993917
63.534,0.993904
63.535,0.993890
63.536,0.993876
63.537,0.993862
63.538,0.993847
63.539,0.993833
63.540,0.993819
63.541,0.993805
63.542,0.993790
63.543,0.993776
63.544,0.993761
63.545,0.993747
63.546,0.993732
63.547,0.993718
63.548,0.993703
63.549,0.993688
63.550,0.993673
63.551,0.993658
63.552,0.993643
63.553,0.993628
63.554,0.993613
63.555,0.993598
63.556,0.993583
63.557,0.993568
63.558,0.993552
63.559,0.993537
63.560,0.993521
63.561,0.993506
63.562,0.993490
63.563,0.993475
63.564,0.993459
63.565,0.993443
63.566,0.993427
63.567,0.993411
63.568,0.993395
63.569,0.993379
63.570,0.993363
63.571,0.993347
63.572,0.993331
63.573,0.993314
63.574,0.993298
63.575,0.993281
63.576,0.993265
63.577,0.993248
63.578,0.993231
63.579,0.993215
63.580,0.993198
63.581,0.993181
63.582,0.993164
63.583,0.993147
63.584,0.993130
63.585,0.993112
63.586,0.993095
63.587,0.993078
63.588,0.993060
63.589,0.993043
63.590,0.993025
63.591,0.993007
63.592,0.992990
63.593,0.992972
63.594,0.992954
63.595,0.992936
63.596,0.992918
63.597,0.992900
63.598,0.992881
63.599,0.992863
63.600,0.992845
63.601,0.992826
63.602,0.992808
63.603,0.992789
63.604,0.992770
63.605,0.992751
63.606,0.992733
63.607,0.992714
63.608,0.992694
63.609,0.992675
63.610,0.992656
63.611,0.992637
63.612,0.992617
63.613,0.992598
63.614,0.992578
63.615,0.992558
63.616,0.992539
63.617,0.992519
63.618,0.992499
63.619,0.992479
63.620,0.992459
63.621,0.992438
63.622,0.992418
63.623,0.992397
63.624,0.992377
63.625,0.992356
63.626,0.992336
63.627,0.992315
63.628,0.992294
63.629,0.992273
63.630,0.992252
63.631,0.992230
63.632,0.992209
63.633,0.992188
63.634,0.992166
63.635,0.992145
63.636,0.992123
63.637,0.992101
63.638,0.992079
63.639,0.992057
63.640,0.992035
63.641,0.992013
63.642,0.991990
63.643,0.991968
63.644,0.991945
63.645,0.991922
63.646,0.991900
63.647,0.991877
63.648,0.991854
63.649,0.991831
63.650,0.991807
63.651,0.991784
63.652,0.991761
63.653,0.991737
63.654,0.991713
63.655,0.991689
63.656,0.991665
63.657,0.991641
63.658,0.991617
63.659,0.991593
63.660,0.991569
63.661,0.991544
63.662,0.991519
63.663,0.991495
63.664,0.991470
63.665,0.991445
63.666,0.991419
63.667,0.991394
63.668,0.991369
63.669,0.991343
63.670,0.991318
63.671,0.991292
63.672,0.991266
63.673,0.991240
63.674,0.991214
63.675,0.991187
63.676,0.991161
63.677,0.991134
63.678,0.991108
63.679,0.991081
63.680,0.991054
63.681,0.991026
63.682,0.990999
63.683,0.990972
63.684,0.990944
63.685,0.990916
63.686,0.990889
63.687,0.990861
63.688,0.990832
63.689,0.990804
63.690,0.990776
63.691,0.990747
63.692,0.990718
63.693,0.990690
63.694,0.990660
63.695,0.990631
63.696,0.990602
63.697,0.990572
63.698,0.990543
63.699,0.990513
63.700,0.990483
63.701,0.990453
63.702,0.990422
63.703,0.990392
63.704,0.990361
63.705,0.990331
63.706,0.990300
63.707,0.990268
63.708,0.990237
63.709,0.990206
63.710,0.990174
63.711,0.990142
63.712,0.990110
63.713,0.990078
63.714,0.990046
63.715,0.990013
63.716,0.989981
63.717,0.989948
63.718,0.989915
63.719,0.989881
63.720,0.989848
63.721,0.989814
63.722,0.989780
63.723,0.989746
63.724,0.989712
63.725,0.989678
63.726,0.989643
63.727,0.989609
63.728,0.989574
63.729,0.989539
63.730,0.989503
63.731,0.989468
63.732,0.989432
63.733,0.989396
63.734,0.989360
63.735,0.989323
63.736,0.989287
63.737,0.989250
63.738,0.989213
63.739,0.989176
63.740,0.989138
63.741,0.989101
63.742,0.989063
63.743,0.989025
63.744,0.988986
63.745,0.988948
63.746,0.988909
63.747,0.988870
63.748,0.988831
63.749,0.988792
63.750,0.988752
63.751,0.988712
63.752,0.988672
63.753,0.988631
63.754,0.988591
63.755,0.988550
63.756,0.988509
63.757,0.988467
63.758,0.988426
63.759,0.988384
63.760,0.988342
63.761,0.988300
63.762,0.988257
63.763,0.988214
63.764,0.988171
63.765,0.988128
63.766,0.988084
63.767,0.988040
63.768,0.987996
63.769,0.987951
63.770,0.987907
63.771,0.987862
63.772,0.987816
63.773,0.987771
63.774,0.987725
63.775,0.987679
63.776,0.987632
63.777,0.987586
63.778,0.987539
63.779,0.987491
63.780,0.987444
63.781,0.987396
63.782,0.987347
63.783,0.987299
63.784,0.987250
63.785,0.987201
63.786,0.987152
63.787,0.987102
63.788,0.987052
63.789,0.987001
63.790,0.986951
63.791,0.986900
63.792,0.986848
63.793,0.986796
63.794,0.986744
63.795,0.986692
63.796,0.986639
63.797,0.986586
63.798,0.986533
63.799,0.986479
63.800,0.986425
63.801,0.986370
63.802,0.986316
63.803,0.986260
63.804,0.986205
63.805,0.986149
63.806,0.986093
63.807,0.986036
63.808,0.985979
63.809,0.985921
63.810,0.985863
63.811,0.985805
63.812,0.985747
63.813,0.985688
63.814,0.985628
63.815,0.985568
63.816,0.985508
63.817,0.985447
63.818,0.985386
63.819,0.985325
63.820,0.985263
63.821,0.985201
63.822,0.985138
63.823,0.985075
63.824,0.985011
63.825,0.984947
63.826,0.984882
63.827,0.984817
63.828,0.984752
63.829,0.984686
63.830,0.984620
63.831,0.984553
63.832,0.984485
63.833,0.984418
63.834,0.984349
63.835,0.984281
63.836,0.984211
63.837,0.984142
63.838,0.984071
63.839,0.984001
63.840,0.983929
63.841,0.983857
63.842,0.983785
63.843,0.983712
63.844,0.983639
63.845,0.983565
63.846,0.983490
63.847,0.983415
63.848,0.983340
63.849,0.983264
63.850,0.983187
63.851,0.983110
63.852,0.983032
63.853,0.982953
63.854,0.982874
63.855,0.982795
63.856,0.982715
63.857,0.982634
63.858,0.982552
63.859,0.982470
63.860,0.982388
63.861,0.982304
63.862,0.982220
63.863,0.982136
63.864,0.982051
63.865,0.981965
63.866,0.981878
63.867,0.981791
63.868,0.981703
63.869,0.981614
63.870,0.981525
63.871,0.981435
63.872,0.981344
63.873,0.981253
63.874,0.981161
63.875,0.981068
63.876,0.980974
63.877,0.980880
63.878,0.980785
63.879,0.980689
63.880,0.980592
63.881,0.980495
63.882,0.980396
63.883,0.980297
63.884,0.980198
63.885,0.980097
63.886,0.979995
63.887,0.979893
63.888,0.979790
63.889,0.979686
63.890,0.979581
63.891,0.979475
63.892,0.979369
63.893,0.979261
63.894,0.979153
63.895,0.979044
63.896,0.978933
63.897,0.978822
63.898,0.978710
63.899,0.978597
63.900,0.978483
63.901,0.978368
63.902,0.978252
63.903,0.978135
63.904,0.978017
63.905,0.977898
63.906,0.977778
63.907,0.977657
63.908,0.977535
63.909,0.977412
63.910,0.977287
63.911,0.977162
63.912,0.977035
63.913,0.976908
63.914,0.976779
63.915,0.976649
63.916,0.976518
63.917,0.976386
63.918,0.976252
63.919,0.976118
63.920,0.975982
63.921,0.975845
63.922,0.975707
63.923,0.975567
63.924,0.975426
63.925,0.975284
63.926,0.975141
63.927,0.974996
63.928,0.974850
63.929,0.974702
63.930,0.974553
63.931,0.974403
63.932,0.974251
63.933,0.974098
63.934,0.973944
63.935,0.973788
63.936,0.973630
63.937,0.973471
63.938,0.973311
63.939,0.973149
63.940,0.972985
63.941,0.972820
63.942,0.972653
63.943,0.972484
63.944,0.972314
63.945,0.972143
63.946,0.971969
63.947,0.971794
63.948,0.971617
63.949,0.971439
63.950,0.971258
63.951,0.971076
63.952,0.970892
63.953,0.970706
63.954,0.970518
63.955,0.970329
63.956,0.970137
63.957,0.969943
63.958,0.969748
63.959,0.969550
63.960,0.969351
63.961,0.969149
63.962,0.968945
63.963,0.968739
63.964,0.968531
63.965,0.968321
63.966,0.968109
63.967,0.967894
63.968,0.967677
63.969,0.967458
63.970,0.967237
63.971,0.967013
63.972,0.966786
63.973,0.966557
63.974,0.966326
63.975,0.966092
63.976,0.965856
63.977,0.965617
63.978,0.965376
63.979,0.965131
63.980,0.964885
63.981,0.964635
63.982,0.964382
63.983,0.964127
63.984,0.963869
63.985,0.963608
63.986,0.963344
63.987,0.963077
63.988,0.962807
63.989,0.962534
63.990,0.962258
63.991,0.961978
63.992,0.961696
63.993,0.961410
63.994,0.961120
63.995,0.960828
63.996,0.960531
63.997,0.960232
63.998,0.959929
63.999,0.959622
64.000,0.959311
64.001,0.958997
64.002,0.958679
64.003,0.958358
64.004,0.958032
64.005,0.957702
64.006,0.957369
64.007,0.957031
64.008,0.956689
64.009,0.956343
64.010,0.955992
64.011,0.955637
64.012,0.955278
64.013,0.954914
64.014,0.954546
64.015,0.954173
64.016,0.953795
64.017,0.953412
64.018,0.953025
64.019,0.952632
64.020,0.952235
64.021,0.951832
64.022,0.951424
64.023,0.951010
64.024,0.950591
64.025,0.950167
64.026,0.949737
64.027,0.949301
64.028,0.948860
64.029,0.948412
64.030,0.947958
64.031,0.947499
64.032,0.947033
64.033,0.946560
64.034,0.946081
64.035,0.945596
64.036,0.945104
64.037,0.944605
64.038,0.944099
64.039,0.943585
64.040,0.943065
64.041,0.942537
64.042,0.942002
64.043,0.941459
64.044,0.940908
64.045,0.940349
64.046,0.939782
64.047,0.939207
64.048,0.938624
64.049,0.938032
64.050,0.937431
64.051,0.936821
64.052,0.936202
64.053,0.935574
64.054,0.934936
64.055,0.934289
64.056,0.933632
64.057,0.932965
64.058,0.932288
64.059,0.931600
64.060,0.930901
64.061,0.930192
64.062,0.929472
64.063,0.928740
64.064,0.927997
64.065,0.927242
64.066,0.926474
64.067,0.925695
64.068,0.924903
64.069,0.924098
64.070,0.923280
64.071,0.922449
64.072,0.921604
64.073,0.920745
64.074,0.919872
64.075,0.918985
64.076,0.918082
64.077,0.917165
64.078,0.916231
64.079,0.915282
64.080,0.914317
64.081,0.913335
64.082,0.912336
64.083,0.911320
64.084,0.910286
64.085,0.909234
64.086,0.908163
64.087,0.907073
64.088,0.905964
64.089,0.904835
64.090,0.903686
64.091,0.902516
64.092,0.901325
64.093,0.900112
64.094,0.898876
64.095,0.897618
64.096,0.896336
64.097,0.895031
64.098,0.893701
64.099,0.892346
64.100,0.890965
64.101,0.889557
64.102,0.888123
64.103,0.886661
64.104,0.885171
64.105,0.883651
64.106,0.882102
64.107,0.880523
64.108,0.878912
64.109,0.877269
64.110,0.875593
64.111,0.873883
64.112,0.872139
64.113,0.870359
64.114,0.868543
64.115,0.866689
64.116,0.864797
64.117,0.862866
64.118,0.860894
64.119,0.858881
64.120,0.856825
64.121,0.854726
64.122,0.852582
64.123,0.850392
64.124,0.848154
64.125,0.845868
64.126,0.843532
64.127,0.841145
64.128,0.838705
64.129,0.836212
64.130,0.833662
64.131,0.831056
64.132,0.828391
64.133,0.825665
64.134,0.822878
64.135,0.820027
64.136,0.817111
64.137,0.814127
64.138,0.811074
64.139,0.807950
64.140,0.804753
64.141,0.801481
64.142,0.798131
64.143,0.794702
64.144,0.791191
64.145,0.787597
64.146,0.783916
64.147,0.780146
64.148,0.776284
64.149,0.772329
64.150,0.768277
64.151,0.764126
64.152,0.759872
64.153,0.755514
64.154,0.751048
64.155,0.746471
64.156,0.741780
64.157,0.736971
64.158,0.732043
64.159,0.726990
64.160,0.721811
64.161,0.716501
64.162,0.711057
64.163,0.705476
64.164,0.699753
64.165,0.693886
64.166,0.687870
64.167,0.681702
64.168,0.675378
64.169,0.668895
64.170,0.662247
64.171,0.655432
64.172,0.648447
64.173,0.641286
64.174,0.633946
64.175,0.626424
64.176,0.618716
64.177,0.610819
64.178,0.602728
64.179,0.594442
64.180,0.585956
64.181,0.577269
64.182,0.568377
64.183,0.559278
64.184,0.549971
64.185,0.540453
64.186,0.530724
64.187,0.520782
64.188,0.510628
64.189,0.500262
64.190,0.489685
64.191,0.478900
64.192,0.467908
64.193,0.456713
64.194,0.445320
64.195,0.433734
64.196,0.421963
64.197,0.410013
64.198,0.397894
64.199,0.385617
64.200,0.373194
64.201,0.360639
64.202,0.347966
64.203,0.335194
64.204,0.322341
64.205,0.309428
64.206,0.296477
64.207,0.283514
64.208,0.270565
64.209,0.257659
64.210,0.244827
64.211,0.232102
64.212,0.219518
64.213,0.207111
64.214,0.194920
64.215,0.182984
64.216,0.171344
64.217,0.160042
64.218,0.149121
64.219,0.138624
64.220,0.128593
64.221,0.119073
64.222,0.110106
64.223,0.101733
64.224,0.093995
64.225,0.086931
64.226,0.080575
64.227,0.074962
64.228,0.070121
64.229,0.066080
64.230,0.062861
64.231,0.060484
64.232,0.058962
64.233,0.058306
64.234,0.058520
64.235,0.059605
64.236,0.061555
64.237,0.064363
64.238,0.068013
64.239,0.072488
64.240,0.077764
64.241,0.083815
64.242,0.090611
64.243,0.098119
64.244,0.106301
64.245,0.115120
64.246,0.124535
64.247,0.134504
64.248,0.144983
64.249,0.155930
64.250,0.167299
64.251,0.179047
64.252,0.191131
64.253,0.203507
64.254,0.216134
64.255,0.228972
64.256,0.241981
64.257,0.255124
64.258,0.268367
64.259,0.281675
64.260,0.295018
64.261,0.308364
64.262,0.321688
64.263,0.334964
64.264,0.348169
64.265,0.361281
64.266,0.374282
64.267,0.387153
64.268,0.399879
64.269,0.412446
64.270,0.424843
64.271,0.437058
64.272,0.449082
64.273,0.460907
64.274,0.472527
64.275,0.483936
64.276,0.495130
64.277,0.506106
64.278,0.516861
64.279,0.527394
64.280,0.537703
64.281,0.547789
64.282,0.557652
64.283,0.567293
64.284,0.576713
64.285,0.585915
64.286,0.594901
64.287,0.603673
64.288,0.612235
64.289,0.620588
64.290,0.628738
64.291,0.636687
64.292,0.644439
64.293,0.651999
64.294,0.659368
64.295,0.666553
64.296,0.673557
64.297,0.680383
64.298,0.687037
64.299,0.693521
64.300,0.699841
64.301,0.705999
64.302,0.712002
64.303,0.717851
64.304,0.723551
64.305,0.729106
64.306,0.734521
64.307,0.739797
64.308,0.744940
64.309,0.749953
64.310,0.754839
64.311,0.759603
64.312,0.764246
64.313,0.768773
64.314,0.773187
64.315,0.777491
64.316,0.781688
64.317,0.785781
64.318,0.789773
64.319,0.793667
64.320,0.797465
64.321,0.801171
64.322,0.804787
64.323,0.808315
64.324,0.811758
64.325,0.815118
64.326,0.818398
64.327,0.821600
64.328,0.824726
64.329,0.827778
64.330,0.830758
64.331,0.833669
64.332,0.836512
64.333,0.839289
64.334,0.842002
64.335,0.844653
64.336,0.847243
64.337,0.849775
64.338,0.852249
64.339,0.854667
64.340,0.857032
64.341,0.859343
64.342,0.861604
64.343,0.863814
64.344,0.865976
64.345,0.868091
64.346,0.870160
64.347,0.872184
64.348,0.874165
64.349,0.876103
64.350,0.878000
64.351,0.879857
64.352,0.881675
64.353,0.883455
64.354,0.885197
64.355,0.886904
64.356,0.888575
64.357,0.890212
64.358,0.891815
64.359,0.893386
64.360,0.894926
64.361,0.896434
64.362,0.897912
64.363,0.899361
64.364,0.900781
64.365,0.902173
64.366,0.903537
64.367,0.904875
64.368,0.906188
64.369,0.907475
64.370,0.908737
64.371,0.909975
64.372,0.911189
64.373,0.912381
64.374,0.913550
64.375,0.914698
64.376,0.915823
64.377,0.916929
64.378,0.918013
64.379,0.919078
64.380,0.920124
64.381,0.921150
64.382,0.922158
64.383,0.923148
64.384,0.924120
64.385,0.925074
64.386,0.926012
64.387,0.926934
64.388,0.927839
64.389,0.928728
64.390,0.929602
64.391,0.930461
64.392,0.931305
64.393,0.932134
64.394,0.932950
64.395,0.933752
64.396,0.934540
64.397,0.935315
64.398,0.936076
64.399,0.936826
64.400,0.937563
64.401,0.938287
64.402,0.939000
64.403,0.939701
64.404,0.940391
64.405,0.941070
64.406,0.941737
64.407,0.942394
64.408,0.943041
64.409,0.943677
64.410,0.944303
64.411,0.944920
64.412,0.945527
64.413,0.946124
64.414,0.946712
64.415,0.947291
64.416,0.947861
64.417,0.948422
64.418,0.948975
64.419,0.949519
64.420,0.950055
64.421,0.950583
64.422,0.951103
64.423,0.951616
64.424,0.952120
64.425,0.952618
64.426,0.953108
64.427,0.953590
64.428,0.954066
64.429,0.954535
64.430,0.954997
64.431,0.955453
64.432,0.955901
64.433,0.956344
64.434,0.956780
64.435,0.957210
64.436,0.957634
64.437,0.958052
64.438,0.958464
64.439,0.958870
64.440,0.959271
64.441,0.959666
64.442,0.960056
64.443,0.960441
64.444,0.960820
64.445,0.961194
64.446,0.961563
64.447,0.961927
64.448,0.962286
64.449,0.962640
64.450,0.962990
64.451,0.963335
64.452,0.963675
64.453,0.964011
64.454,0.964342
64.455,0.964669
64.456,0.964992
64.457,0.965311
64.458,0.965626
64.459,0.965936
64.460,0.966243
64.461,0.966545
64.462,0.966844
64.463,0.967139
64.464,0.967430
64.465,0.967718
64.466,0.968002
64.467,0.968283
64.468,0.968560
64.469,0.968833
64.470,0.969103
64.471,0.969370
64.472,0.969634
64.473,0.969894
64.474,0.970151
64.475,0.970406
64.476,0.970657
64.477,0.970905
64.478,0.971150
64.479,0.971392
64.480,0.971631
64.481,0.971867
64.482,0.972101
64.483,0.972332
64.484,0.972560
64.485,0.972785
64.486,0.973008
64.487,0.973229
64.488,0.973446
64.489,0.973661
64.490,0.973874
64.491,0.974084
64.492,0.974292
64.493,0.974498
64.494,0.974701
64.495,0.974902
64.496,0.975101
64.497,0.975297
64.498,0.975491
64.499,0.975683
64.500,0.975873
64.501,0.976061
64.502,0.976247
64.503,0.976431
64.504,0.976612
64.505,0.976792
64.506,0.976970
64.507,0.977146
64.508,0.977320
64.509,0.977492
64.510,0.977662
64.511,0.977830
64.512,0.977997
64.513,0.978162
64.514,0.978325
64.515,0.978486
64.516,0.978646
64.517,0.978804
64.518,0.978960
64.519,0.979115
64.520,0.979268
64.521,0.979419
64.522,0.979569
64.523,0.979718
64.524,0.979865
64.525,0.980010
64.526,0.980154
64.527,0.980296
64.528,0.980437
64.529,0.980577
64.530,0.980715
64.531,0.980852
64.532,0.980987
64.533,0.981121
64.534,0.981254
64.535,0.981385
64.536,0.981515
64.537,0.981644
64.538,0.981771
64.539,0.981898
64.540,0.982023
64.541,0.982147
64.542,0.982269
64.543,0.982391
64.544,0.982511
64.545,0.982630
64.546,0.982748
64.547,0.982865
64.548,0.982980
64.549,0.983095
64.550,0.983208
64.551,0.983321
64.552,0.983432
64.553,0.983542
64.554,0.983652
64.555,0.983760
64.556,0.983867
64.557,0.983973
64.558,0.984079
64.559,0.984183
64.560,0.984286
64.561,0.984389
64.562,0.984490
64.563,0.984591
64.564,0.984690
64.565,0.984789
64.566,0.984887
64.567,0.984983
64.568,0.985080
64.569,0.985175
64.570,0.985269
64.571,0.985362
64.572,0.985455
64.573,0.985547
64.574,0.985638
64.575,0.985728
64.576,0.985817
64.577,0.985906
64.578,0.985994
64.579,0.986081
64.580,0.986167
64.581,0.986252
64.582,0.986337
64.583,0.986421
64.584,0.986505
64.585,0.986587
64.586,0.986669
64.587,0.986750
64.588,0.986831
64.589,0.986911
64.590,0.986990
64.591,0.987068
64.592,0.987146
64.593,0.987223
64.594,0.987299
64.595,0.987375
64.596,0.987450
64.597,0.987525
64.598,0.987599
64.599,0.987672
64.600,0.987745
64.601,0.987817
64.602,0.987889
64.603,0.987960
64.604,0.988030
64.605,0.988100
64.606,0.988169
64.607,0.988237
64.608,0.988306
64.609,0.988373
64.610,0.988440
64.611,0.988506
64.612,0.988572
64.613,0.988638
64.614,0.988703
64.615,0.988767
64.616,0.988831
64.617,0.988894
64.618,0.988957
64.619,0.989019
64.620,0.989081
64.621,0.989142
64.622,0.989203
64.623,0.989263
64.624,0.989323
64.625,0.989383
64.626,0.989442
64.627,0.989500
64.628,0.989558
64.629,0.989616
64.630,0.989673
64.631,0.989730
64.632,0.989786
64.633,0.989842
64.634,0.989897
64.635,0.989952
64.636,0.990007
64.637,0.990061
64.638,0.990115
64.639,0.990168
64.640,0.990221
64.641,0.990273
64.642,0.990325
64.643,0.990377
64.644,0.990429
64.645,0.990480
64.646,0.990530
64.647,0.990580
64.648,0.990630
64.649,0.990680
64.650,0.990729
64.651,0.990778
64.652,0.990826
64.653,0.990874
64.654,0.990922
64.655,0.990969
64.656,0.991016
64.657,0.991063
64.658,0.991109
64.659,0.991155
64.660,0.991201
64.661,0.991246
64.662,0.991291
64.663,0.991336
64.664,0.991380
64.665,0.991424
64.666,0.991468
64.667,0.991511
64.668,0.991554
64.669,0.991597
64.670,0.991639
64.671,0.991682
64.672,0.991724
64.673,0.991765
64.674,0.991806
64.675,0.991848
64.676,0.991888
64.677,0.991929
64.678,0.991969
64.679,0.992009
64.680,0.992048
64.681,0.992088
64.682,0.992127
64.683,0.992166
64.684,0.992204
64.685,0.992242
64.686,0.992280
64.687,0.992318
64.688,0.992356
64.689,0.992393
64.690,0.992430
64.691,0.992467
64.692,0.992503
64.693,0.992539
64.694,0.992575
64.695,0.992611
64.696,0.992647
64.697,0.992682
64.698,0.992717
64.699,0.992752
64.700,0.992786
64.701,0.992821
64.702,0.992855
64.703,0.992889
64.704,0.992922
64.705,0.992956
64.706,0.992989
64.707,0.993022
64.708,0.993055
64.709,0.993087
64.710,0.993120
64.711,0.993152
64.712,0.993184
64.713,0.993216
64.714,0.993247
64.715,0.993279
64.716,0.993310
64.717,0.993341
64.718,0.993371
64.719,0.993402
64.720,0.993432
64.721,0.993462
64.722,0.993492
64.723,0.993522
64.724,0.993552
64.725,0.993581
64.726,0.993610
64.727,0.993639
64.728,0.993668
64.729,0.993697
64.730,0.993725
64.731,0.993754
64.732,0.993782
64.733,0.993810
64.734,0.993837
64.735,0.993865
64.736,0.993892
64.737,0.993920
64.738,0.993947
64.739,0.993974
64.740,0.994000
64.741,0.994027
64.742,0.994054
64.743,0.994080
64.744,0.994106
64.745,0.994132
64.746,0.994158
64.747,0.994183
64.748,0.994209
64.749,0.994234
64.750,0.994259
64.751,0.994284
64.752,0.994309
64.753,0.994334
64.754,0.994358
64.755,0.994383
64.756,0.994407
64.757,0.994431
64.758,0.994455
64.759,0.994479
64.760,0.994503
64.761,0.994526
64.762,0.994550
64.763,0.994573
64.764,0.994596
64.765,0.994619
64.766,0.994642
64.767,0.994665
64.768,0.994687
64.769,0.994710
64.770,0.994732
64.771,0.994754
64.772,0.994777
64.773,0.994798
64.774,0.994820
64.775,0.994842
64.776,0.994864
64.777,0.994885
64.778,0.994906
64.779,0.994928
64.780,0.994949
64.781,0.994970
64.782,0.994990
64.783,0.995011
64.784,0.995032
64.785,0.995052
64.786,0.995073
64.787,0.995093
64.788,0.995113
64.789,0.995133
64.790,0.995153
64.791,0.995173
64.792,0.995193
64.793,0.995212
64.794,0.995232
64.795,0.995251
64.796,0.995270
64.797,0.995289
64.798,0.995308
64.799,0.995327
64.800,0.995346
64.801,0.995365
64.802,0.995383
64.803,0.995402
64.804,0.995420
64.805,0.995439
64.806,0.995457
64.807,0.995475
64.808,0.995493
64.809,0.995511
64.810,0.995529
64.811,0.995547
64.812,0.995564
64.813,0.995582
64.814,0.995599
64.815,0.995616
64.816,0.995634
64.817,0.995651
64.818,0.995668
64.819,0.995685
64.820,0.995702
64.821,0.995719
64.822,0.995735
64.823,0.995752
64.824,0.995768
64.825,0.995785
64.826,0.995801
64.827,0.995817
64.828,0.995834
64.829,0.995850
64.830,0.995866
64.831,0.995882
64.832,0.995897
64.833,0.995913
64.834,0.995929
64.835,0.995944
64.836,0.995960
64.837,0.995975
64.838,0.995991
64.839,0.996006
64.840,0.996021
64.841,0.996036
64.842,0.996051
64.843,0.996066
64.844,0.996081
64.845,0.996096
64.846,0.996110
64.847,0.996125
64.848,0.996140
64.849,0.996154
64.850,0.996169
64.851,0.996183
64.852,0.996197
64.853,0.996211
64.854,0.996225
64.855,0.996240
64.856,0.996253
64.857,0.996267
64.858,0.996281
64.859,0.996295
64.860,0.996309
64.861,0.996322
64.862,0.996336
64.863,0.996349
64.864,0.996363
64.865,0.996376
64.866,0.996389
64.867,0.996403
64.868,0.996416
64.869,0.996429
64.870,0.996442
64.871,0.996455
64.872,0.996468
64.873,0.996481
64.874,0.996493
64.875,0.996506
64.876,0.996519
64.877,0.996531
64.878,0.996544
64.879,0.996556
64.880,0.996569
64.881,0.996581
64.882,0.996593
64.883,0.996605
64.884,0.996618
64.885,0.996630
64.886,0.996642
64.887,0.996654
64.888,0.996666
64.889,0.996677
64.890,0.996689
64.891,0.996701
64.892,0.996713
64.893,0.996724
64.894,0.996736
64.895,0.996747
64.896,0.996759
64.897,0.996770
64.898,0.996782
64.899,0.996793
64.900,0.996804
64.901,0.996815
64.902,0.996826
64.903,0.996838
64.904,0.996849
64.905,0.996860
64.906,0.996870
64.907,0.996881
64.908,0.996892
64.909,0.996903
64.910,0.996914
64.911,0.996924
64.912,0.996935
64.913,0.996946
64.914,0.996956
64.915,0.996967
64.916,0.996977
64.917,0.996987
64.918,0.996998
64.919,0.997008
64.920,0.997018
64.921,0.997028
64.922,0.997038
64.923,0.997049
64.924,0.997059
64.925,0.997069
64.926,0.997079
64.927,0.997088
64.928,0.997098
64.929,0.997108
64.930,0.997118
64.931,0.997128
64.932,0.997137
64.933,0.997147
64.934,0.997157
64.935,0.997166
64.936,0.997176
64.937,0.997185
64.938,0.997194
64.939,0.997204
64.940,0.997213
64.941,0.997222
64.942,0.997232
64.943,0.997241
64.944,0.997250
64.945,0.997259
64.946,0.997268
64.947,0.997277
64.948,0.997286
64.949,0.997295
64.950,0.997304
64.951,0.997313
64.952,0.997322
64.953,0.997331
64.954,0.997339
64.955,0.997348
64.956,0.997357
64.957,0.997365
64.958,0.997374
64.959,0.997383
64.960,0.997391
64.961,0.997400
64.962,0.997408
64.963,0.997417
64.964,0.997425
64.965,0.997433
64.966,0.997442
64.967,0.997450
64.968,0.997458
64.969,0.997466
64.970,0.997474
64.971,0.997483
64.972,0.997491
64.973,0.997499
64.974,0.997507
64.975,0.997515
64.976,0.997523
64.977,0.997531
64.978,0.997539
64.979,0.997546
64.980,0.997554
64.981,0.997562
64.982,0.997570
64.983,0.997577
64.984,0.997585
64.985,0.997593
64.986,0.997600
64.987,0.997608
64.988,0.997616
64.989,0.997623
64.990,0.997631
64.991,0.997638
64.992,0.997645
64.993,0.997653
64.994,0.997660
64.995,0.997668
64.996,0.997675
64.997,0.997682
64.998,0.997689
64.999,0.997697
65.000,0.997704
65.001,0.997711
65.002,0.997718
65.003,0.997725
65.004,0.997732
65.005,0.997739
65.006,0.997746
65.007,0.997753
65.008,0.997760
65.009,0.997767
65.010,0.997774
65.011,0.997781
65.012,0.997788
65.013,0.997794
65.014,0.997801
65.015,0.997808
65.016,0.997815
65.017,0.997821
65.018,0.997828
65.019,0.997835
65.020,0.997841
65.021,0.997848
65.022,0.997854
65.023,0.997861
65.024,0.997867
65.025,0.997874
65.026,0.997880
65.027,0.997887
65.028,0.997893
65.029,0.997899
65.030,0.997906
65.031,0.997912
65.032,0.997918
65.033,0.997925
65.034,0.997931
65.035,0.997937
65.036,0.997943
65.037,0.997949
65.038,0.997955
65.039,0.997962
65.040,0.997968
65.041,0.997974
65.042,0.997980
65.043,0.997986
65.044,0.997992
65.045,0.997998
65.046,0.998004
65.047,0.998010
65.048,0.998016
65.049,0.998021
65.050,0.998027
65.051,0.998033
65.052,0.998039
65.053,0.998045
65.054,0.998050
65.055,0.998056
65.056,0.998062
65.057,0.998068
65.058,0.998073
65.059,0.998079
65.060,0.998084
65.061,0.998090
65.062,0.998096
65.063,0.998101
65.064,0.998107
65.065,0.998112
65.066,0.998118
65.067,0.998123
65.068,0.998129
65.069,0.998134
65.070,0.998140
65.071,0.998145
65.072,0.998150
65.073,0.998156
65.074,0.998161
65.075,0.998166
65.076,0.998172
65.077,0.998177
65.078,0.998182
65.079,0.998187
65.080,0.998192
65.081,0.998198
65.082,0.998203
65.083,0.998208
65.084,0.998213
65.085,0.998218
65.086,0.998223
65.087,0.998228
65.088,0.998233
65.089,0.998238
65.090,0.998243
65.091,0.998248
65.092,0.998253
65.093,0.998258
65.094,0.998263
65.095,0.998268
65.096,0.998273
65.097,0.998278
65.098,0.998283
65.099,0.998288
65.100,0.998292
65.101,0.998297
65.102,0.998302
65.103,0.998307
65.104,0.998311
65.105,0.998316
65.106,0.998321
65.107,0.998326
65.108,0.998330
65.109,0.998335
65.110,0.998340
65.111,0.998344
65.112,0.998349
65.113,0.998353
65.114,0.998358
65.115,0.998363
65.116,0.998367
65.117,0.998372
65.118,0.998376
65.119,0.998381
65.120,0.998385
65.121,0.998390
65.122,0.998394
65.123,0.998398
65.124,0.998403
65.125,0.998407
65.126,0.998412
65.127,0.998416
65.128,0.998420
65.129,0.998425
65.130,0.998429
65.131,0.998433
65.132,0.998437
65.133,0.998442
65.134,0.998446
65.135,0.998450
65.136,0.998454
65.137,0.998459
65.138,0.998463
65.139,0.998467
65.140,0.998471
65.141,0.998475
65.142,0.998479
65.143,0.998484
65.144,0.998488
65.145,0.998492
65.146,0.998496
65.147,0.998500
65.148,0.998504
65.149,0.998508
65.150,0.998512
65.151,0.998516
65.152,0.998520
65.153,0.998524
65.154,0.998528
65.155,0.998532
65.156,0.998536
65.157,0.998540
65.158,0.998544
65.159,0.998547
65.160,0.998551
65.161,0.998555
65.162,0.998559
65.163,0.998563
65.164,0.998567
65.165,0.998570
65.166,0.998574
65.167,0.998578
65.168,0.998582
65.169,0.998585
65.170,0.998589
65.171,0.998593
65.172,0.998597
65.173,0.998600
65.174,0.998604
65.175,0.998608
65.176,0.998611
65.177,0.998615
65.178,0.998619
65.179,0.998622
65.180,0.998626
65.181,0.998629
65.182,0.998633
65.183,0.998637
65.184,0.998640
65.185,0.998644
65.186,0.998647
65.187,0.998651
65.188,0.998654
65.189,0.998658
65.190,0.998661
65.191,0.998665
65.192,0.998668
65.193,0.998672
65.194,0.998675
65.195,0.998678
65.196,0.998682
65.197,0.998685
65.198,0.998689
65.199,0.998692
65.200,0.998695
65.201,0.998699
65.202,0.998702
65.203,0.998705
65.204,0.998709
65.205,0.998712
65.206,0.998715
65.207,0.998719
65.208,0.998722
65.209,0.998725
65.210,0.998728
65.211,0.998732
65.212,0.998735
65.213,0.998738
65.214,0.998741
65.215,0.998745
65.216,0.998748
65.217,0.998751
65.218,0.998754
65.219,0.998757
65.220,0.998760
65.221,0.998764
65.222,0.998767
65.223,0.998770
65.224,0.998773
65.225,0.998776
65.226,0.998779
65.227,0.998782
65.228,0.998785
65.229,0.998788
65.230,0.998791
65.231,0.998794
65.232,0.998797
65.233,0.998800
65.234,0.998803
65.235,0.998806
65.236,0.998809
65.237,0.998812
65.238,0.998815
65.239,0.998818
65.240,0.998821
65.241,0.998824
65.242,0.998827
65.243,0.998830
65.244,0.998833
65.245,0.998836
65.246,0.998839
65.247,0.998842
65.248,0.998844
65.249,0.998847
65.250,0.998850
65.251,0.998853
65.252,0.998856
65.253,0.998859
65.254,0.998861
65.255,0.998864
65.256,0.998867
65.257,0.998870
65.258,0.998873
65.259,0.998875
65.260,0.998878
65.261,0.998881
65.262,0.998884
65.263,0.998886
65.264,0.998889
65.265,0.998892
65.266,0.998894
65.267,0.998897
65.268,0.998900
65.269,0.998902
65.270,0.998905
65.271,0.998908
65.272,0.998910
65.273,0.998913
65.274,0.998916
65.275,0.998918
65.276,0.998921
65.277,0.998924
65.278,0.998926
65.279,0.998929
65.280,0.998931
65.281,0.998934
65.282,0.998937
65.283,0.998939
65.284,0.998942
65.285,0.998944
65.286,0.998947
65.287,0.998949
65.288,0.998952
65.289,0.998954
65.290,0.998957
65.291,0.998959
65.292,0.998962
65.293,0.998964
65.294,0.998967
65.295,0.998969
65.296,0.998972
65.297,0.998974
65.298,0.998977
65.299,0.998979
65.300,0.998981
65.301,0.998984
65.302,0.998986
65.303,0.998989
65.304,0.998991
65.305,0.998993
65.306,0.998996
65.307,0.998998
65.308,0.999001
65.309,0.999003
65.310,0.999005
65.311,0.999008
65.312,0.999010
65.313,0.999012
65.314,0.999015
65.315,0.999017
65.316,0.999019
65.317,0.999022
65.318,0.999024
65.319,0.999026
65.320,0.999028
65.321,0.999031
65.322,0.999033
65.323,0.999035
65.324,0.999037
65.325,0.999040
65.326,0.999042
65.327,0.999044
65.328,0.999046
65.329,0.999049
65.330,0.999051
65.331,0.999053
65.332,0.999055
65.333,0.999057
65.334,0.999060
65.335,0.999062
65.336,0.999064
65.337,0.999066
65.338,0.999068
65.339,0.999070
65.340,0.999073
65.341,0.999075
65.342,0.999077
65.343,0.999079
65.344,0.999081
65.345,0.999083
65.346,0.999085
65.347,0.999087
65.348,0.999090
65.349,0.999092
65.350,0.999094
65.351,0.999096
65.352,0.999098
65.353,0.999100
65.354,0.999102
65.355,0.999104
65.356,0.999106
65.357,0.999108
65.358,0.999110
65.359,0.999112
65.360,0.999114
65.361,0.999116
65.362,0.999118
65.363,0.999120
65.364,0.999122
65.365,0.999124
65.366,0.999126
65.367,0.999128
65.368,0.999130
65.369,0.999132
65.370,0.999134
65.371,0.999136
65.372,0.999138
65.373,0.999140
65.374,0.999142
65.375,0.999144
65.376,0.999146
65.377,0.999148
65.378,0.999150
65.379,0.999151
65.380,0.999153
65.381,0.999155
65.382,0.999157
65.383,0.999159
65.384,0.999161
65.385,0.999163
65.386,0.999165
65.387,0.999167
65.388,0.999168
65.389,0.999170
65.390,0.999172
65.391,0.999174
65.392,0.999176
65.393,0.999178
65.394,0.999179
65.395,0.999181
65.396,0.999183
65.397,0.999185
65.398,0.999187
65.399,0.999189
65.400,0.999190
65.401,0.999192
65.402,0.999194
65.403,0.999196
65.404,0.999197
65.405,0.999199
65.406,0.999201
65.407,0.999203
65.408,0.999205
65.409,0.999206
65.410,0.999208
65.411,0.999210
65.412,0.999211
65.413,0.999213
65.414,0.999215
65.415,0.999217
65.416,0.999218
65.417,0.999220
65.418,0.999222
65.419,0.999223
65.420,0.999225
65.421,0.999227
65.422,0.999229
65.423,0.999230
65.424,0.999232
65.425,0.999234
65.426,0.999235
65.427,0.999237
65.428,0.999239
65.429,0.999240
65.430,0.999242
65.431,0.999244
65.432,0.999245
65.433,0.999247
65.434,0.999248
65.435,0.999250
65.436,0.999252
65.437,0.999253
65.438,0.999255
65.439,0.999257
65.440,0.999258
65.441,0.999260
65.442,0.999261
65.443,0.999263
65.444,0.999264
65.445,0.999266
65.446,0.999268
65.447,0.999269
65.448,0.999271
65.449,0.999272
65.450,0.999274
65.451,0.999275
65.452,0.999277
65.453,0.999279
65.454,0.999280
65.455,0.999282
65.456,0.999283
65.457,0.999285
65.458,0.999286
65.459,0.999288
65.460,0.999289
65.461,0.999291
65.462,0.999292
65.463,0.999294
65.464,0.999295
65.465,0.999297
65.466,0.999298
65.467,0.999300
65.468,0.999301
65.469,0.999303
65.470,0.999304
65.471,0.999306
65.472,0.999307
65.473,0.999309
65.474,0.999310
65.475,0.999311
65.476,0.999313
65.477,0.999314
65.478,0.999316
65.479,0.999317
65.480,0.999319
65.481,0.999320
65.482,0.999322
65.483,0.999323
65.484,0.999324
65.485,0.999326
65.486,0.999327
65.487,0.999329
65.488,0.999330
65.489,0.999331
65.490,0.999333
65.491,0.999334
65.492,0.999336
65.493,0.999337
65.494,0.999338
65.495,0.999340
65.496,0.999341
65.497,0.999343
65.498,0.999344
65.499,0.999345
65.500,0.999347
65.501,0.999348
65.502,0.999349
65.503,0.999351
65.504,0.999352
65.505,0.999353
65.506,0.999355
65.507,0.999356
65.508,0.999357
65.509,0.999359
65.510,0.999360
65.511,0.999361
65.512,0.999363
65.513,0.999364
65.514,0.999365
65.515,0.999367
65.516,0.999368
65.517,0.999369
65.518,0.999370
65.519,0.999372
65.520,0.999373
65.521,0.999374
65.522,0.999376
65.523,0.999377
65.524,0.999378
65.525,0.999379
65.526,0.999381
65.527,0.999382
65.528,0.999383
65.529,0.999384
65.530,0.999386
65.531,0.999387
65.532,0.999388
65.533,0.999389
65.534,0.999391
65.535,0.999392
65.536,0.999393
65.537,0.999394
65.538,0.999396
65.539,0.999397
65.540,0.999398
65.541,0.999399
65.542,0.999401
65.543,0.999402
65.544,0.999403
65.545,0.999404
65.546,0.999405
65.547,0.999407
65.548,0.999408
65.549,0.999409
65.550,0.999410
65.551,0.999411
65.552,0.999413
65.553,0.999414
65.554,0.999415
65.555,0.999416
65.556,0.999417
65.557,0.999418
65.558,0.999420
65.559,0.999421
65.560,0.999422
65.561,0.999423
65.562,0.999424
65.563,0.999425
65.564,0.999426
65.565,0.999428
65.566,0.999429
65.567,0.999430
65.568,0.999431
65.569,0.999432
65.570,0.999433
65.571,0.999434
65.572,0.999436
65.573,0.999437
65.574,0.999438
65.575,0.999439
65.576,0.999440
65.577,0.999441
65.578,0.999442
65.579,0.999443
65.580,0.999444
65.581,0.999446
65.582,0.999447
65.583,0.999448
65.584,0.999449
65.585,0.999450
65.586,0.999451
65.587,0.999452
65.588,0.999453
65.589,0.999454
65.590,0.999455
65.591,0.999456
65.592,0.999457
65.593,0.999459
65.594,0.999460
65.595,0.999461
65.596,0.999462
65.597,0.999463
65.598,0.999464
65.599,0.999465
65.600,0.999466
65.601,0.999467
65.602,0.999468
65.603,0.999469
65.604,0.999470
65.605,0.999471
65.606,0.999472
65.607,0.999473
65.608,0.999474
65.609,0.999475
65.610,0.999476
65.611,0.999477
65.612,0.999478
65.613,0.999479
65.614,0.999480
65.615,0.999481
65.616,0.999482
65.617,0.999483
65.618,0.999484
65.619,0.999485
65.620,0.999486
65.621,0.999487
65.622,0.999488
65.623,0.999489
65.624,0.999490
65.625,0.999491
65.626,0.999492
65.627,0.999493
65.628,0.999494
65.629,0.999495
65.630,0.999496
65.631,0.999497
65.632,0.999498
65.633,0.999499
65.634,0.999500
65.635,0.999501
65.636,0.999502
65.637,0.999503
65.638,0.999504
65.639,0.999505
65.640,0.999506
65.641,0.999507
65.642,0.999508
65.643,0.999509
65.644,0.999509
65.645,0.999510
65.646,0.999511
65.647,0.999512
65.648,0.999513
65.649,0.999514
65.650,0.999515
65.651,0.999516
65.652,0.999517
65.653,0.999518
65.654,0.999519
65.655,0.999520
65.656,0.999521
65.657,0.999521
65.658,0.999522
65.659,0.999523
65.660,0.999524
65.661,0.999525
65.662,0.999526
65.663,0.999527
65.664,0.999528
65.665,0.999529
65.666,0.999530
65.667,0.999530
65.668,0.999531
65.669,0.999532
65.670,0.999533
65.671,0.999534
65.672,0.999535
65.673,0.999536
65.674,0.999537
65.675,0.999537
65.676,0.999538
65.677,0.999539
65.678,0.999540
65.679,0.999541
65.680,0.999542
65.681,0.999543
65.682,0.999544
65.683,0.999544
65.684,0.999545
65.685,0.999546
65.686,0.999547
65.687,0.999548
65.688,0.999549
65.689,0.999549
65.690,0.999550
65.691,0.999551
65.692,0.999552
65.693,0.999553
65.694,0.999554
65.695,0.999554
65.696,0.999555
65.697,0.999556
65.698,0.999557
65.699,0.999558
65.700,0.999559
65.701,0.999559
65.702,0.999560
65.703,0.999561
65.704,0.999562
65.705,0.999563
65.706,0.999563
65.707,0.999564
65.708,0.999565
65.709,0.999566
65.710,0.999567
65.711,0.999567
65.712,0.999568
65.713,0.999569
65.714,0.999570
65.715,0.999571
65.716,0.999571
65.717,0.999572
65.718,0.999573
65.719,0.999574
65.720,0.999575
65.721,0.999575
65.722,0.999576
65.723,0.999577
65.724,0.999578
65.725,0.999578
65.726,0.999579
65.727,0.999580
65.728,0.999581
65.729,0.999582
65.730,0.999582
65.731,0.999583
65.732,0.999584
65.733,0.999585
65.734,0.999585
65.735,0.999586
65.736,0.999587
65.737,0.999588
65.738,0.999588
65.739,0.999589
65.740,0.999590
65.741,0.999591
65.742,0.999591
65.743,0.999592
65.744,0.999593
65.745,0.999594
65.746,0.999594
65.747,0.999595
65.748,0.999596
65.749,0.999596
65.750,0.999597
65.751,0.999598
65.752,0.999599
65.753,0.999599
65.754,0.999600
65.755,0.999601
65.756,0.999602
65.757,0.999602
65.758,0.999603
65.759,0.999604
65.760,0.999604
65.761,0.999605
65.762,0.999606
65.763,0.999607
65.764,0.999607
65.765,0.999608
65.766,0.999609
65.767,0.999609
65.768,0.999610
65.769,0.999611
65.770,0.999611
65.771,0.999612
65.772,0.999613
65.773,0.999614
65.774,0.999614
65.775,0.999615
65.776,0.999616
65.777,0.999616
65.778,0.999617
65.779,0.999618
65.780,0.999618
65.781,0.999619
65.782,0.999620
65.783,0.999620
65.784,0.999621
65.785,0.999622
65.786,0.999622
65.787,0.999623
65.788,0.999624
65.789,0.999624
65.790,0.999625
65.791,0.999626
65.792,0.999626
65.793,0.999627
65.794,0.999628
65.795,0.999628
65.796,0.999629
65.797,0.999630
65.798,0.999630
65.799,0.999631
65.800,0.999632
65.801,0.999632
65.802,0.999633
65.803,0.999634
65.804,0.999634
65.805,0.999635
65.806,0.999635
65.807,0.999636
65.808,0.999637
65.809,0.999637
65.810,0.999638
65.811,0.999639
65.812,0.999639
65.813,0.999640
65.814,0.999641
65.815,0.999641
65.816,0.999642
65.817,0.999642
65.818,0.999643
65.819,0.999644
65.820,0.999644
65.821,0.999645
65.822,0.999646
65.823,0.999646
65.824,0.999647
65.825,0.999647
65.826,0.999648
65.827,0.999649
65.828,0.999649
65.829,0.999650
65.830,0.999650
65.831,0.999651
65.832,0.999652
65.833,0.999652
65.834,0.999653
65.835,0.999653
65.836,0.999654
65.837,0.999655
65.838,0.999655
65.839,0.999656
65.840,0.999656
65.841,0.999657
65.842,0.999658
65.843,0.999658
65.844,0.999659
65.845,0.999659
65.846,0.999660
65.847,0.999661
65.848,0.999661
65.849,0.999662
65.850,0.999662
65.851,0.999663
65.852,0.999664
65.853,0.999664
65.854,0.999665
65.855,0.999665
65.856,0.999666
65.857,0.999666
65.858,0.999667
65.859,0.999668
65.860,0.999668
65.861,0.999669
65.862,0.999669
65.863,0.999670
65.864,0.999670
65.865,0.999671
65.866,0.999672
65.867,0.999672
65.868,0.999673
65.869,0.999673
65.870,0.999674
65.871,0.999674
65.872,0.999675
65.873,0.999675
65.874,0.999676
65.875,0.999677
65.876,0.999677
65.877,0.999678
65.878,0.999678
65.879,0.999679
65.880,0.999679
65.881,0.999680
65.882,0.999680
65.883,0.999681
65.884,0.999681
65.885,0.999682
65.886,0.999683
65.887,0.999683
65.888,0.999684
65.889,0.999684
65.890,0.999685
65.891,0.999685
65.892,0.999686
65.893,0.999686
65.894,0.999687
65.895,0.999687
65.896,0.999688
65.897,0.999688
65.898,0.999689
65.899,0.999689
65.900,0.999690
65.901,0.999690
65.902,0.999691
65.903,0.999692
65.904,0.999692
65.905,0.999693
65.906,0.999693
65.907,0.999694
65.908,0.999694
65.909,0.999695
65.910,0.999695
65.911,0.999696
65.912,0.999696
65.913,0.999697
65.914,0.999697
65.915,0.999698
65.916,0.999698
65.917,0.999699
65.918,0.999699
65.919,0.999700
65.920,0.999700
65.921,0.999701
65.922,0.999701
65.923,0.999702
65.924,0.999702
65.925,0.999703
65.926,0.999703
65.927,0.999704
65.928,0.999704
65.929,0.999705
65.930,0.999705
65.931,0.999706
65.932,0.999706
65.933,0.999707
65.934,0.999707
65.935,0.999708
65.936,0.999708
65.937,0.999709
65.938,0.999709
65.939,0.999709
65.940,0.999710
65.941,0.999710
65.942,0.999711
65.943,0.999711
65.944,0.999712
65.945,0.999712
65.946,0.999713
65.947,0.999713
65.948,0.999714
65.949,0.999714
65.950,0.999715
65.951,0.999715
65.952,0.999716
65.953,0.999716
65.954,0.999717
65.955,0.999717
65.956,0.999718
65.957,0.999718
65.958,0.999718
65.959,0.999719
65.960,0.999719
65.961,0.999720
65.962,0.999720
65.963,0.999721
65.964,0.999721
65.965,0.999722
65.966,0.999722
65.967,0.999723
65.968,0.999723
65.969,0.999723
65.970,0.999724
65.971,0.999724
65.972,0.999725
65.973,0.999725
65.974,0.999726
65.975,0.999726
65.976,0.999727
65.977,0.999727
65.978,0.999728
65.979,0.999728
65.980,0.999728
65.981,0.999729
65.982,0.999729
65.983,0.999730
65.984,0.999730
65.985,0.999731
65.986,0.999731
65.987,0.999731
65.988,0.999732
65.989,0.999732
65.990,0.999733
65.991,0.999733
65.992,0.999734
65.993,0.999734
65.994,0.999734
65.995,0.999735
65.996,0.999735
65.997,0.999736
65.998,0.999736
65.999,0.999737
66.000,0.999737
66.001,0.999737
66.002,0.999738
66.003,0.999738
66.004,0.999739
66.005,0.999739
66.006,0.999740
66.007,0.999740
66.008,0.999740
66.009,0.999741
66.010,0.999741
66.011,0.999742
66.012,0.999742
66.013,0.999742
66.014,0.999743
66.015,0.999743
66.016,0.999744
66.017,0.999744
66.018,0.999745
66.019,0.999745
66.020,0.999745
66.021,0.999746
66.022,0.999746
66.023,0.999747
66.024,0.999747
66.025,0.999747
66.026,0.999748
66.027,0.999748
66.028,0.999749
66.029,0.999749
66.030,0.999749
66.031,0.999750
66.032,0.999750
66.033,0.999751
66.034,0.999751
66.035,0.999751
66.036,0.999752
66.037,0.999752
66.038,0.999753
66.039,0.999753
66.040,0.999753
66.041,0.999754
66.042,0.999754
66.043,0.999755
66.044,0.999755
66.045,0.999755
66.046,0.999756
66.047,0.999756
66.048,0.999756
66.049,0.999757
66.050,0.999757
66.051,0.999758
66.052,0.999758
66.053,0.999758
66.054,0.999759
66.055,0.999759
66.056,0.999760
66.057,0.999760
66.058,0.999760
66.059,0.999761
66.060,0.999761
66.061,0.999761
66.062,0.999762
66.063,0.999762
66.064,0.999763
66.065,0.999763
66.066,0.999763
66.067,0.999764
66.068,0.999764
66.069,0.999764
66.070,0.999765
66.071,0.999765
66.072,0.999765
66.073,0.999766
66.074,0.999766
66.075,0.999767
66.076,0.999767
66.077,0.999767
66.078,0.999768
66.079,0.999768
66.080,0.999768
66.081,0.999769
66.082,0.999769
66.083,0.999769
66.084,0.999770
66.085,0.999770
66.086,0.999771
66.087,0.999771
66.088,0.999771
66.089,0.999772
66.090,0.999772
66.091,0.999772
66.092,0.999773
66.093,0.999773
66.094,0.999773
66.095,0.999774
66.096,0.999774
66.097,0.999774
66.098,0.999775
66.099,0.999775
66.100,0.999775
66.101,0.999776
66.102,0.999776
66.103,0.999777
66.104,0.999777
66.105,0.999777
66.106,0.999778
66.107,0.999778
66.108,0.999778
66.109,0.999779
66.110,0.999779
66.111,0.999779
66.112,0.999780
66.113,0.999780
66.114,0.999780
66.115,0.999781
66.116,0.999781
66.117,0.999781
66.118,0.999782
66.119,0.999782
66.120,0.999782
66.121,0.999783
66.122,0.999783
66.123,0.999783
66.124,0.999784
66.125,0.999784
66.126,0.999784
66.127,0.999785
66.128,0.999785
66.129,0.999785
66.130,0.999786
66.131,0.999786
66.132,0.999786
66.133,0.999787
66.134,0.999787
66.135,0.999787
66.136,0.999788
66.137,0.999788
66.138,0.999788
66.139,0.999789
66.140,0.999789
66.141,0.999789
66.142,0.999790
66.143,0.999790
66.144,0.999790
66.145,0.999790
66.146,0.999791
66.147,0.999791
66.148,0.999791
66.149,0.999792
66.150,0.999792
66.151,0.999792
66.152,0.999793
66.153,0.999793
66.154,0.999793
66.155,0.999794
66.156,0.999794
66.157,0.999794
66.158,0.999795
66.159,0.999795
66.160,0.999795
66.161,0.999796
66.162,0.999796
66.163,0.999796
66.164,0.999796
66.165,0.999797
66.166,0.999797
66.167,0.999797
66.168,0.999798
66.169,0.999798
66.170,0.999798
66.171,0.999799
66.172,0.999799
66.173,0.999799
66.174,0.999799
66.175,0.999800
66.176,0.999800
66.177,0.999800
66.178,0.999801
66.179,0.999801
66.180,0.999801
66.181,0.999802
66.182,0.999802
66.183,0.999802
66.184,0.999802
66.185,0.999803
66.186,0.999803
66.187,0.999803
66.188,0.999804
66.189,0.999804
66.190,0.999804
66.191,0.999805
66.192,0.999805
66.193,0.999805
66.194,0.999805
66.195,0.999806
66.196,0.999806
66.197,0.999806
66.198,0.999807
66.199,0.999807
66.200,0.999807
66.201,0.999807
66.202,0.999808
66.203,0.999808
66.204,0.999808
66.205,0.999809
66.206,0.999809
66.207,0.999809
66.208,0.999809
66.209,0.999810
66.210,0.999810
66.211,0.999810
66.212,0.999811
66.213,0.999811
66.214,0.999811
66.215,0.999811
66.216,0.999812
66.217,0.999812
66.218,0.999812
66.219,0.999813
66.220,0.999813
66.221,0.999813
66.222,0.999813
66.223,0.999814
66.224,0.999814
66.225,0.999814
66.226,0.999814
66.227,0.999815
66.228,0.999815
66.229,0.999815
66.230,0.999816
66.231,0.999816
66.232,0.999816
66.233,0.999816
66.234,0.999817
66.235,0.999817
66.236,0.999817
66.237,0.999817
66.238,0.999818
66.239,0.999818
66.240,0.999818
66.241,0.999818
66.242,0.999819
66.243,0.999819
66.244,0.999819
66.245,0.999820
66.246,0.999820
66.247,0.999820
66.248,0.999820
66.249,0.999821
66.250,0.999821
66.251,0.999821
66.252,0.999821
66.253,0.999822
66.254,0.999822
66.255,0.999822
66.256,0.999822
66.257,0.999823
66.258,0.999823
66.259,0.999823
66.260,0.999823
66.261,0.999824
66.262,0.999824
66.263,0.999824
66.264,0.999824
66.265,0.999825
66.266,0.999825
66.267,0.999825
66.268,0.999826
66.269,0.999826
66.270,0.999826
66.271,0.999826
66.272,0.999827
66.273,0.999827
66.274,0.999827
66.275,0.999827
66.276,0.999828
66.277,0.999828
66.278,0.999828
66.279,0.999828
66.280,0.999829
66.281,0.999829
66.282,0.999829
66.283,0.999829
66.284,0.999830
66.285,0.999830
66.286,0.999830
66.287,0.999830
66.288,0.999831
66.289,0.999831
66.290,0.999831
66.291,0.999831
66.292,0.999831
66.293,0.999832
66.294,0.999832
66.295,0.999832
66.296,0.999832
66.297,0.999833
66.298,0.999833
66.299,0.999833
66.300,0.999833
66.301,0.999834
66.302,0.999834
66.303,0.999834
66.304,0.999834
66.305,0.999835
66.306,0.999835
66.307,0.999835
66.308,0.999835
66.309,0.999836
66.310,0.999836
66.311,0.999836
66.312,0.999836
66.313,0.999836
66.314,0.999837
66.315,0.999837
66.316,0.999837
66.317,0.999837
66.318,0.999838
66.319,0.999838
66.320,0.999838
66.321,0.999838
66.322,0.999839
66.323,0.999839
66.324,0.999839
66.325,0.999839
66.326,0.999839
66.327,0.999840
66.328,0.999840
66.329,0.999840
66.330,0.999840
66.331,0.999841
66.332,0.999841
66.333,0.999841
66.334,0.999841
66.335,0.999842
66.336,0.999842
66.337,0.999842
66.338,0.999842
66.339,0.999842
66.340,0.999843
66.341,0.999843
66.342,0.999843
66.343,0.999843
66.344,0.999844
66.345,0.999844
66.346,0.999844
66.347,0.999844
66.348,0.999844
66.349,0.999845
66.350,0.999845
66.351,0.999845
66.352,0.999845
66.353,0.999846
66.354,0.999846
66.355,0.999846
66.356,0.999846
66.357,0.999846
66.358,0.999847
66.359,0.999847
66.360,0.999847
66.361,0.999847
66.362,0.999847
66.363,0.999848
66.364,0.999848
66.365,0.999848
66.366,0.999848
66.367,0.999849
66.368,0.999849
66.369,0.999849
66.370,0.999849
66.371,0.999849
66.372,0.999850
66.373,0.999850
66.374,0.999850
66.375,0.999850
66.376,0.999850
66.377,0.999851
66.378,0.999851
66.379,0.999851
66.380,0.999851
66.381,0.999851
66.382,0.999852
66.383,0.999852
66.384,0.999852
66.385,0.999852
66.386,0.999853
66.387,0.999853
66.388,0.999853
66.389,0.999853
66.390,0.999853
66.391,0.999854
66.392,0.999854
66.393,0.999854
66.394,0.999854
66.395,0.999854
66.396,0.999855
66.397,0.999855
66.398,0.999855
66.399,0.999855
66.400,0.999855
66.401,0.999856
66.402,0.999856
66.403,0.999856
66.404,0.999856
66.405,0.999856
66.406,0.999857
66.407,0.999857
66.408,0.999857
66.409,0.999857
66.410,0.999857
66.411,0.999858
66.412,0.999858
66.413,0.999858
66.414,0.999858
66.415,0.999858
66.416,0.999859
66.417,0.999859
66.418,0.999859
66.419,0.999859
66.420,0.999859
66.421,0.999860
66.422,0.999860
66.423,0.999860
66.424,0.999860
66.425,0.999860
66.426,0.999860
66.427,0.999861
66.428,0.999861
66.429,0.999861
66.430,0.999861
66.431,0.999861
66.432,0.999862
66.433,0.999862
66.434,0.999862
66.435,0.999862
66.436,0.999862
66.437,0.999863
66.438,0.999863
66.439,0.999863
66.440,0.999863
66.441,0.999863
66.442,0.999864
66.443,0.999864
66.444,0.999864
66.445,0.999864
66.446,0.999864
66.447,0.999864
66.448,0.999865
66.449,0.999865
66.450,0.999865
66.451,0.999865
66.452,0.999865
66.453,0.999866
66.454,0.999866
66.455,0.999866
66.456,0.999866
66.457,0.999866
66.458,0.999866
66.459,0.999867
66.460,0.999867
66.461,0.999867
66.462,0.999867
66.463,0.999867
66.464,0.999868
66.465,0.999868
66.466,0.999868
66.467,0.999868
66.468,0.999868
66.469,0.999868
66.470,0.999869
66.471,0.999869
66.472,0.999869
66.473,0.999869
66.474,0.999869
66.475,0.999870
66.476,0.999870
66.477,0.999870
66.478,0.999870
66.479,0.999870
66.480,0.999870
66.481,0.999871
66.482,0.999871
66.483,0.999871
66.484,0.999871
66.485,0.999871
66.486,0.999871
66.487,0.999872
66.488,0.999872
66.489,0.999872
66.490,0.999872
66.491,0.999872
66.492,0.999872
66.493,0.999873
66.494,0.999873
66.495,0.999873
66.496,0.999873
66.497,0.999873
66.498,0.999874
66.499,0.999874
66.500,0.999874
66.501,0.999874
66.502,0.999874
66.503,0.999874
66.504,0.999875
66.505,0.999875
66.506,0.999875
66.507,0.999875
66.508,0.999875
66.509,0.999875
66.510,0.999876
66.511,0.999876
66.512,0.999876
66.513,0.999876
66.514,0.999876
66.515,0.999876
66.516,0.999877
66.517,0.999877
66.518,0.999877
66.519,0.999877
66.520,0.999877
66.521,0.999877
66.522,0.999878
66.523,0.999878
66.524,0.999878
66.525,0.999878
66.526,0.999878
66.527,0.999878
66.528,0.999879
66.529,0.999879
66.530,0.999879
66.531,0.999879
66.532,0.999879
66.533,0.999879
66.534,0.999879
66.535,0.999880
66.536,0.999880
66.537,0.999880
66.538,0.999880
66.539,0.999880
66.540,0.999880
66.541,0.999881
66.542,0.999881
66.543,0.999881
66.544,0.999881
66.545,0.999881
66.546,0.999881
66.547,0.999882
66.548,0.999882
66.549,0.999882
66.550,0.999882
66.551,0.999882
66.552,0.999882
66.553,0.999882
66.554,0.999883
66.555,0.999883
66.556,0.999883
66.557,0.999883
66.558,0.999883
66.559,0.999883
66.560,0.999884
66.561,0.999884
66.562,0.999884
66.563,0.999884
66.564,0.999884
66.565,0.999884
66.566,0.999884
66.567,0.999885
66.568,0.999885
66.569,0.999885
66.570,0.999885
66.571,0.999885
66.572,0.999885
66.573,0.999886
66.574,0.999886
66.575,0.999886
66.576,0.999886
66.577,0.999886
66.578,0.999886
66.579,0.999886
66.580,0.999887
66.581,0.999887
66.582,0.999887
66.583,0.999887
66.584,0.999887
66.585,0.999887
66.586,0.999887
66.587,0.999888
66.588,0.999888
66.589,0.999888
66.590,0.999888
66.591,0.999888
66.592,0.999888
66.593,0.999889
66.594,0.999889
66.595,0.999889
66.596,0.999889
66.597,0.999889
66.598,0.999889
66.599,0.999889
66.600,0.999890
66.601,0.999890
66.602,0.999890
66.603,0.999890
66.604,0.999890
66.605,0.999890
66.606,0.999890
66.607,0.999891
66.608,0.999891
66.609,0.999891
66.610,0.999891
66.611,0.999891
66.612,0.999891
66.613,0.999891
66.614,0.999892
66.615,0.999892
66.616,0.999892
66.617,0.999892
66.618,0.999892
66.619,0.999892
66.620,0.999892
66.621,0.999892
66.622,0.999893
66.623,0.999893
66.624,0.999893
66.625,0.999893
66.626,0.999893
66.627,0.999893
66.628,0.999893
66.629,0.999894
66.630,0.999894
66.631,0.999894
66.632,0.999894
66.633,0.999894
66.634,0.999894
66.635,0.999894
66.636,0.999895
66.637,0.999895
66.638,0.999895
66.639,0.999895
66.640,0.999895
66.641,0.999895
66.642,0.999895
66.643,0.999896
66.644,0.999896
66.645,0.999896
66.646,0.999896
66.647,0.999896
66.648,0.999896
66.649,0.999896
66.650,0.999896
66.651,0.999897
66.652,0.999897
66.653,0.999897
66.654,0.999897
66.655,0.999897
66.656,0.999897
66.657,0.999897
66.658,0.999898
66.659,0.999898
66.660,0.999898
66.661,0.999898
66.662,0.999898
66.663,0.999898
66.664,0.999898
66.665,0.999898
66.666,0.999899
66.667,0.999899
66.668,0.999899
66.669,0.999899
66.670,0.999899
66.671,0.999899
66.672,0.999899
66.673,0.999899
66.674,0.999900
66.675,0.999900
66.676,0.999900
66.677,0.999900
66.678,0.999900
66.679,0.999900
66.680,0.999900
66.681,0.999900
66.682,0.999901
66.683,0.999901
66.684,0.999901
66.685,0.999901
66.686,0.999901
66.687,0.999901
66.688,0.999901
66.689,0.999901
66.690,0.999902
66.691,0.999902
66.692,0.999902
66.693,0.999902
66.694,0.999902
66.695,0.999902
66.696,0.999902
66.697,0.999902
66.698,0.999903
66.699,0.999903
66.700,0.999903
66.701,0.999903
66.702,0.999903
66.703,0.999903
66.704,0.999903
66.705,0.999903
66.706,0.999904
66.707,0.999904
66.708,0.999904
66.709,0.999904
66.710,0.999904
66.711,0.999904
66.712,0.999904
66.713,0.999904
66.714,0.999905
66.715,0.999905
66.716,0.999905
66.717,0.999905
66.718,0.999905
66.719,0.999905
66.720,0.999905
66.721,0.999905
66.722,0.999906
66.723,0.999906
66.724,0.999906
66.725,0.999906
66.726,0.999906
66.727,0.999906
66.728,0.999906
66.729,0.999906
66.730,0.999906
66.731,0.999907
66.732,0.999907
66.733,0.999907
66.734,0.999907
66.735,0.999907
66.736,0.999907
66.737,0.999907
66.738,0.999907
66.739,0.999908
66.740,0.999908
66.741,0.999908
66.742,0.999908
66.743,0.999908
66.744,0.999908
66.745,0.999908
66.746,0.999908
66.747,0.999908
66.748,0.999909
66.749,0.999909
66.750,0.999909
66.751,0.999909
66.752,0.999909
66.753,0.999909
66.754,0.999909
66.755,0.999909
66.756,0.999909
66.757,0.999910
66.758,0.999910
66.759,0.999910
66.760,0.999910
66.761,0.999910
66.762,0.999910
66.763,0.999910
66.764,0.999910
66.765,0.999910
66.766,0.999911
66.767,0.999911
66.768,0.999911
66.769,0.999911
66.770,0.999911
66.771,0.999911
66.772,0.999911
66.773,0.999911
66.774,0.999911
66.775,0.999912
66.776,0.999912
66.777,0.999912
66.778,0.999912
66.779,0.999912
66.780,0.999912
66.781,0.999912
66.782,0.999912
66.783,0.999912
66.784,0.999913
66.785,0.999913
66.786,0.999913
66.787,0.999913
66.788,0.999913
66.789,0.999913
66.790,0.999913
66.791,0.999913
66.792,0.999913
66.793,0.999914
66.794,0.999914
66.795,0.999914
66.796,0.999914
66.797,0.999914
66.798,0.999914
66.799,0.999914
66.800,0.999914
66.801,0.999914
66.802,0.999914
66.803,0.999915
66.804,0.999915
66.805,0.999915
66.806,0.999915
66.807,0.999915
66.808,0.999915
66.809,0.999915
66.810,0.999915
66.811,0.999915
66.812,0.999916
66.813,0.999916
66.814,0.999916
66.815,0.999916
66.816,0.999916
66.817,0.999916
66.818,0.999916
66.819,0.999916
66.820,0.999916
66.821,0.999916
66.822,0.999917
66.823,0.999917
66.824,0.999917
66.825,0.999917
66.826,0.999917
66.827,0.999917
66.828,0.999917
66.829,0.999917
66.830,0.999917
66.831,0.999917
66.832,0.999918
66.833,0.999918
66.834,0.999918
66.835,0.999918
66.836,0.999918
66.837,0.999918
66.838,0.999918
66.839,0.999918
66.840,0.999918
66.841,0.999918
66.842,0.999919
66.843,0.999919
66.844,0.999919
66.845,0.999919
66.846,0.999919
66.847,0.999919
66.848,0.999919
66.849,0.999919
66.850,0.999919
66.851,0.999919
66.852,0.999920
66.853,0.999920
66.854,0.999920
66.855,0.999920
66.856,0.999920
66.857,0.999920
66.858,0.999920
66.859,0.999920
66.860,0.999920
66.861,0.999920
66.862,0.999921
66.863,0.999921
66.864,0.999921
66.865,0.999921
66.866,0.999921
66.867,0.999921
66.868,0.999921
66.869,0.999921
66.870,0.999921
66.871,0.999921
66.872,0.999921
66.873,0.999922
66.874,0.999922
66.875,0.999922
66.876,0.999922
66.877,0.999922
66.878,0.999922
66.879,0.999922
66.880,0.999922
66.881,0.999922
66.882,0.999922
66.883,0.999923
66.884,0.999923
66.885,0.999923
66.886,0.999923
66.887,0.999923
66.888,0.999923
66.889,0.999923
66.890,0.999923
66.891,0.999923
66.892,0.999923
66.893,0.999923
66.894,0.999924
66.895,0.999924
66.896,0.999924
66.897,0.999924
66.898,0.999924
66.899,0.999924
66.900,0.999924
66.901,0.999924
66.902,0.999924
66.903,0.999924
66.904,0.999924
66.905,0.999925
66.906,0.999925
66.907,0.999925
66.908,0.999925
66.909,0.999925
66.910,0.999925
66.911,0.999925
66.912,0.999925
66.913,0.999925
66.914,0.999925
66.915,0.999925
66.916,0.999926
66.917,0.999926
66.918,0.999926
66.919,0.999926
66.920,0.999926
66.921,0.999926
66.922,0.999926
66.923,0.999926
66.924,0.999926
66.925,0.999926
66.926,0.999926
66.927,0.999927
66.928,0.999927
66.929,0.999927
66.930,0.999927
66.931,0.999927
66.932,0.999927
66.933,0.999927
66.934,0.999927
66.935,0.999927
66.936,0.999927
66.937,0.999927
66.938,0.999927
66.939,0.999928
66.940,0.999928
66.941,0.999928
66.942,0.999928
66.943,0.999928
66.944,0.999928
66.945,0.999928
66.946,0.999928
66.947,0.999928
66.948,0.999928
66.949,0.999928
66.950,0.999928
66.951,0.999929
66.952,0.999929
66.953,0.999929
66.954,0.999929
66.955,0.999929
66.956,0.999929
66.957,0.999929
66.958,0.999929
66.959,0.999929
66.960,0.999929
66.961,0.999929
66.962,0.999929
66.963,0.999930
66.964,0.999930
66.965,0.999930
66.966,0.999930
66.967,0.999930
66.968,0.999930
66.969,0.999930
66.970,0.999930
66.971,0.999930
66.972,0.999930
66.973,0.999930
66.974,0.999930
66.975,0.999931
66.976,0.999931
66.977,0.999931
66.978,0.999931
66.979,0.999931
66.980,0.999931
66.981,0.999931
66.982,0.999931
66.983,0.999931
66.984,0.999931
66.985,0.999931
66.986,0.999931
66.987,0.999932
66.988,0.999932
66.989,0.999932
66.990,0.999932
66.991,0.999932
66.992,0.999932
66.993,0.999932
66.994,0.999932
66.995,0.999932
66.996,0.999932
66.997,0.999932
66.998,0.999932
66.999,0.999932
67.000,0.999933
67.001,0.999933
67.002,0.999933
67.003,0.999933
67.004,0.999933
67.005,0.999933
67.006,0.999933
67.007,0.999933
67.008,0.999933
67.009,0.999933
67.010,0.999933
67.011,0.999933
67.012,0.999934
67.013,0.999934
67.014,0.999934
67.015,0.999934
67.016,0.999934
67.017,0.999934
67.018,0.999934
67.019,0.999934
67.020,0.999934
67.021,0.999934
67.022,0.999934
67.023,0.999934
67.024,0.999934
67.025,0.999935
67.026,0.999935
67.027,0.999935
67.028,0.999935
67.029,0.999935
67.030,0.999935
67.031,0.999935
67.032,0.999935
67.033,0.999935
67.034,0.999935
67.035,0.999935
67.036,0.999935
67.037,0.999935
67.038,0.999935
67.039,0.999936
67.040,0.999936
67.041,0.999936
67.042,0.999936
67.043,0.999936
67.044,0.999936
67.045,0.999936
67.046,0.999936
67.047,0.999936
67.048,0.999936
67.049,0.999936
67.050,0.999936
67.051,0.999936
67.052,0.999937
67.053,0.999937
67.054,0.999937
67.055,0.999937
67.056,0.999937
67.057,0.999937
67.058,0.999937
67.059,0.999937
67.060,0.999937
67.061,0.999937
67.062,0.999937
67.063,0.999937
67.064,0.999937
67.065,0.999937
67.066,0.999938
67.067,0.999938
67.068,0.999938
67.069,0.999938
67.070,0.999938
67.071,0.999938
67.072,0.999938
67.073,0.999938
67.074,0.999938
67.075,0.999938
67.076,0.999938
67.077,0.999938
67.078,0.999938
67.079,0.999938
67.080,0.999939
67.081,0.999939
67.082,0.999939
67.083,0.999939
67.084,0.999939
67.085,0.999939
67.086,0.999939
67.087,0.999939
67.088,0.999939
67.089,0.999939
67.090,0.999939
67.091,0.999939
67.092,0.999939
67.093,0.999939
67.094,0.999940
67.095,0.999940
67.096,0.999940
67.097,0.999940
67.098,0.999940
67.099,0.999940
67.100,0.999940
67.101,0.999940
67.102,0.999940
67.103,0.999940
67.104,0.999940
67.105,0.999940
67.106,0.999940
67.107,0.999940
67.108,0.999940
67.109,0.999941
67.110,0.999941
67.111,0.999941
67.112,0.999941
67.113,0.999941
67.114,0.999941
67.115,0.999941
67.116,0.999941
67.117,0.999941
67.118,0.999941
67.119,0.999941
67.120,0.999941
67.121,0.999941
67.122,0.999941
67.123,0.999941
67.124,0.999942
67.125,0.999942
67.126,0.999942
67.127,0.999942
67.128,0.999942
67.129,0.999942
67.130,0.999942
67.131,0.999942
67.132,0.999942
67.133,0.999942
67.134,0.999942
67.135,0.999942
67.136,0.999942
67.137,0.999942
67.138,0.999942
67.139,0.999943
67.140,0.999943
67.141,0.999943
67.142,0.999943
67.143,0.999943
67.144,0.999943
67.145,0.999943
67.146,0.999943
67.147,0.999943
67.148,0.999943
67.149,0.999943
67.150,0.999943
67.151,0.999943
67.152,0.999943
67.153,0.999943
67.154,0.999944
67.155,0.999944
67.156,0.999944
67.157,0.999944
67.158,0.999944
67.159,0.999944
67.160,0.999944
67.161,0.999944
67.162,0.999944
67.163,0.999944
67.164,0.999944
67.165,0.999944
67.166,0.999944
67.167,0.999944
67.168,0.999944
67.169,0.999944
67.170,0.999945
67.171,0.999945
67.172,0.999945
67.173,0.999945
67.174,0.999945
67.175,0.999945
67.176,0.999945
67.177,0.999945
67.178,0.999945
67.179,0.999945
67.180,0.999945
67.181,0.999945
67.182,0.999945
67.183,0.999945
67.184,0.999945
67.185,0.999945
67.186,0.999945
67.187,0.999946
67.188,0.999946
67.189,0.999946
67.190,0.999946
67.191,0.999946
67.192,0.999946
67.193,0.999946
67.194,0.999946
67.195,0.999946
67.196,0.999946
67.197,0.999946
67.198,0.999946
67.199,0.999946
67.200,0.999946
67.201,0.999946
67.202,0.999946
67.203,0.999947
67.204,0.999947
67.205,0.999947
67.206,0.999947
67.207,0.999947
67.208,0.999947
67.209,0.999947
67.210,0.999947
67.211,0.999947
67.212,0.999947
67.213,0.999947
67.214,0.999947
67.215,0.999947
67.216,0.999947
67.217,0.999947
67.218,0.999947
67.219,0.999947
67.220,0.999948
67.221,0.999948
67.222,0.999948
67.223,0.999948
67.224,0.999948
67.225,0.999948
67.226,0.999948
67.227,0.999948
67.228,0.999948
67.229,0.999948
67.230,0.999948
67.231,0.999948
67.232,0.999948
67.233,0.999948
67.234,0.999948
67.235,0.999948
67.236,0.999948
67.237,0.999948
67.238,0.999949
67.239,0.999949
67.240,0.999949
67.241,0.999949
67.242,0.999949
67.243,0.999949
67.244,0.999949
67.245,0.999949
67.246,0.999949
67.247,0.999949
67.248,0.999949
67.249,0.999949
67.250,0.999949
67.251,0.999949
67.252,0.999949
67.253,0.999949
67.254,0.999949
67.255,0.999950
67.256,0.999950
67.257,0.999950
67.258,0.999950
67.259,0.999950
67.260,0.999950
67.261,0.999950
67.262,0.999950
67.263,0.999950
67.264,0.999950
67.265,0.999950
67.266,0.999950
67.267,0.999950
67.268,0.999950
67.269,0.999950
67.270,0.999950
67.271,0.999950
67.272,0.999950
67.273,0.999951
67.274,0.999951
67.275,0.999951
67.276,0.999951
67.277,0.999951
67.278,0.999951
67.279,0.999951
67.280,0.999951
67.281,0.999951
67.282,0.999951
67.283,0.999951
67.284,0.999951
67.285,0.999951
67.286,0.999951
67.287,0.999951
67.288,0.999951
67.289,0.999951
67.290,0.999951
67.291,0.999951
67.292,0.999952
67.293,0.999952
67.294,0.999952
67.295,0.999952
67.296,0.999952
67.297,0.999952
67.298,0.999952
67.299,0.999952
67.300,0.999952
67.301,0.999952
67.302,0.999952
67.303,0.999952
67.304,0.999952
67.305,0.999952
67.306,0.999952
67.307,0.999952
67.308,0.999952
67.309,0.999952
67.310,0.999952
67.311,0.999953
67.312,0.999953
67.313,0.999953
67.314,0.999953
67.315,0.999953
67.316,0.999953
67.317,0.999953
67.318,0.999953
67.319,0.999953
67.320,0.999953
67.321,0.999953
67.322,0.999953
67.323,0.999953
67.324,0.999953
67.325,0.999953
67.326,0.999953
67.327,0.999953
67.328,0.999953
67.329,0.999953
67.330,0.999953
67.331,0.999954
67.332,0.999954
67.333,0.999954
67.334,0.999954
67.335,0.999954
67.336,0.999954
67.337,0.999954
67.338,0.999954
67.339,0.999954
67.340,0.999954
67.341,0.999954
67.342,0.999954
67.343,0.999954
67.344,0.999954
67.345,0.999954
67.346,0.999954
67.347,0.999954
67.348,0.999954
67.349,0.999954
67.350,0.999954
67.351,0.999955
67.352,0.999955
67.353,0.999955
67.354,0.999955
67.355,0.999955
67.356,0.999955
67.357,0.999955
67.358,0.999955
67.359,0.999955
67.360,0.999955
67.361,0.999955
67.362,0.999955
67.363,0.999955
67.364,0.999955
67.365,0.999955
67.366,0.999955
67.367,0.999955
67.368,0.999955
67.369,0.999955
67.370,0.999955
67.371,0.999955
67.372,0.999956
67.373,0.999956
67.374,0.999956
67.375,0.999956
67.376,0.999956
67.377,0.999956
67.378,0.999956
67.379,0.999956
67.380,0.999956
67.381,0.999956
67.382,0.999956
67.383,0.999956
67.384,0.999956
67.385,0.999956
67.386,0.999956
67.387,0.999956
67.388,0.999956
67.389,0.999956
67.390,0.999956
67.391,0.999956
67.392,0.999956
67.393,0.999957
67.394,0.999957
67.395,0.999957
67.396,0.999957
67.397,0.999957
67.398,0.999957
67.399,0.999957
67.400,0.999957
67.401,0.999957
67.402,0.999957
67.403,0.999957
67.404,0.999957
67.405,0.999957
67.406,0.999957
67.407,0.999957
67.408,0.999957
67.409,0.999957
67.410,0.999957
67.411,0.999957
67.412,0.999957
67.413,0.999957
67.414,0.999957
67.415,0.999958
67.416,0.999958
67.417,0.999958
67.418,0.999958
67.419,0.999958
67.420,0.999958
67.421,0.999958
67.422,0.999958
67.423,0.999958
67.424,0.999958
67.425,0.999958
67.426,0.999958
67.427,0.999958
67.428,0.999958
67.429,0.999958
67.430,0.999958
67.431,0.999958
67.432,0.999958
67.433,0.999958
67.434,0.999958
67.435,0.999958
67.436,0.999958
67.437,0.999959
67.438,0.999959
67.439,0.999959
67.440,0.999959
67.441,0.999959
67.442,0.999959
67.443,0.999959
67.444,0.999959
67.445,0.999959
67.446,0.999959
67.447,0.999959
67.448,0.999959
67.449,0.999959
67.450,0.999959
67.451,0.999959
67.452,0.999959
67.453,0.999959
67.454,0.999959
67.455,0.999959
67.456,0.999959
67.457,0.999959
67.458,0.999959
67.459,0.999959
67.460,0.999960
67.461,0.999960
67.462,0.999960
67.463,0.999960
67.464,0.999960
67.465,0.999960
67.466,0.999960
67.467,0.999960
67.468,0.999960
67.469,0.999960
67.470,0.999960
67.471,0.999960
67.472,0.999960
67.473,0.999960
67.474,0.999960
67.475,0.999960
67.476,0.999960
67.477,0.999960
67.478,0.999960
67.479,0.999960
67.480,0.999960
67.481,0.999960
67.482,0.999960
67.483,0.999960
67.484,0.999961
67.485,0.999961
67.486,0.999961
67.487,0.999961
67.488,0.999961
67.489,0.999961
67.490,0.999961
67.491,0.999961
67.492,0.999961
67.493,0.999961
67.494,0.999961
67.495,0.999961
67.496,0.999961
67.497,0.999961
67.498,0.999961
67.499,0.999961
67.500,0.999961
67.501,0.999961
67.502,0.999961
67.503,0.999961
67.504,0.999961
67.505,0.999961
67.506,0.999961
67.507,0.999961
67.508,0.999961
67.509,0.999962
67.510,0.999962
67.511,0.999962
67.512,0.999962
67.513,0.999962
67.514,0.999962
67.515,0.999962
67.516,0.999962
67.517,0.999962
67.518,0.999962
67.519,0.999962
67.520,0.999962
67.521,0.999962
67.522,0.999962
67.523,0.999962
67.524,0.999962
67.525,0.999962
67.526,0.999962
67.527,0.999962
67.528,0.999962
67.529,0.999962
67.530,0.999962
67.531,0.999962
67.532,0.999962
67.533,0.999962
67.534,0.999963
67.535,0.999963
67.536,0.999963
67.537,0.999963
67.538,0.999963
67.539,0.999963
67.540,0.999963
67.541,0.999963
67.542,0.999963
67.543,0.999963
67.544,0.999963
67.545,0.999963
67.546,0.999963
67.547,0.999963
67.548,0.999963
67.549,0.999963
67.550,0.999963
67.551,0.999963
67.552,0.999963
67.553,0.999963
67.554,0.999963
67.555,0.999963
67.556,0.999963
67.557,0.999963
67.558,0.999963
67.559,0.999963
67.560,0.999964
67.561,0.999964
67.562,0.999964
67.563,0.999964
67.564,0.999964
67.565,0.999964
67.566,0.999964
67.567,0.999964
67.568,0.999964
67.569,0.999964
67.570,0.999964
67.571,0.999964
67.572,0.999964
67.573,0.999964
67.574,0.999964
67.575,0.999964
67.576,0.999964
67.577,0.999964
67.578,0.999964
67.579,0.999964
67.580,0.999964
67.581,0.999964
67.582,0.999964
67.583,0.999964
67.584,0.999964
67.585,0.999964
67.586,0.999964
67.587,0.999965
67.588,0.999965
67.589,0.999965
67.590,0.999965
67.591,0.999965
67.592,0.999965
67.593,0.999965
67.594,0.999965
67.595,0.999965
67.596,0.999965
67.597,0.999965
67.598,0.999965
67.599,0.999965
67.600,0.999965
67.601,0.999965
67.602,0.999965
67.603,0.999965
67.604,0.999965
67.605,0.999965
67.606,0.999965
67.607,0.999965
67.608,0.999965
67.609,0.999965
67.610,0.999965
67.611,0.999965
67.612,0.999965
67.613,0.999965
67.614,0.999965
67.615,0.999966
67.616,0.999966
67.617,0.999966
67.618,0.999966
67.619,0.999966
67.620,0.999966
67.621,0.999966
67.622,0.999966
67.623,0.999966
67.624,0.999966
67.625,0.999966
67.626,0.999966
67.627,0.999966
67.628,0.999966
67.629,0.999966
67.630,0.999966
67.631,0.999966
67.632,0.999966
67.633,0.999966
67.634,0.999966
67.635,0.999966
67.636,0.999966
67.637,0.999966
67.638,0.999966
67.639,0.999966
67.640,0.999966
67.641,0.999966
67.642,0.999966
67.643,0.999966
67.644,0.999967
67.645,0.999967
67.646,0.999967
67.647,0.999967
67.648,0.999967
67.649,0.999967
67.650,0.999967
67.651,0.999967
67.652,0.999967
67.653,0.999967
67.654,0.999967
67.655,0.999967
67.656,0.999967
67.657,0.999967
67.658,0.999967
67.659,0.999967
67.660,0.999967
67.661,0.999967
67.662,0.999967
67.663,0.999967
67.664,0.999967
67.665,0.999967
67.666,0.999967
67.667,0.999967
67.668,0.999967
67.669,0.999967
67.670,0.999967
67.671,0.999967
67.672,0.999967
67.673,0.999967
67.674,0.999968
67.675,0.999968
67.676,0.999968
67.677,0.999968
67.678,0.999968
67.679,0.999968
67.680,0.999968
67.681,0.999968
67.682,0.999968
67.683,0.999968
67.684,0.999968
67.685,0.999968
67.686,0.999968
67.687,0.999968
67.688,0.999968
67.689,0.999968
67.690,0.999968
67.691,0.999968
67.692,0.999968
67.693,0.999968
67.694,0.999968
67.695,0.999968
67.696,0.999968
67.697,0.999968
67.698,0.999968
67.699,0.999968
67.700,0.999968
67.701,0.999968
67.702,0.999968
67.703,0.999968
67.704,0.999968
67.705,0.999969
67.706,0.999969
67.707,0.999969
67.708,0.999969
67.709,0.999969
67.710,0.999969
67.711,0.999969
67.712,0.999969
67.713,0.999969
67.714,0.999969
67.715,0.999969
67.716,0.999969
67.717,0.999969
67.718,0.999969
67.719,0.999969
67.720,0.999969
67.721,0.999969
67.722,0.999969
67.723,0.999969
67.724,0.999969
67.725,0.999969
67.726,0.999969
67.727,0.999969
67.728,0.999969
67.729,0.999969
67.730,0.999969
67.731,0.999969
67.732,0.999969
67.733,0.999969
67.734,0.999969
67.735,0.999969
67.736,0.999969
67.737,0.999969
67.738,0.999970
67.739,0.999970
67.740,0.999970
67.741,0.999970
67.742,0.999970
67.743,0.999970
67.744,0.999970
67.745,0.999970
67.746,0.999970
67.747,0.999970
67.748,0.999970
67.749,0.999970
67.750,0.999970
67.751,0.999970
67.752,0.999970
67.753,0.999970
67.754,0.999970
67.755,0.999970
67.756,0.999970
67.757,0.999970
67.758,0.999970
67.759,0.999970
67.760,0.999970
67.761,0.999970
67.762,0.999970
67.763,0.999970
67.764,0.999970
67.765,0.999970
67.766,0.999970
67.767,0.999970
67.768,0.999970
67.769,0.999970
67.770,0.999970
67.771,0.999971
67.772,0.999971
67.773,0.999971
67.774,0.999971
67.775,0.999971
67.776,0.999971
67.777,0.999971
67.778,0.999971
67.779,0.999971
67.780,0.999971
67.781,0.999971
67.782,0.999971
67.783,0.999971
67.784,0.999971
67.785,0.999971
67.786,0.999971
67.787,0.999971
67.788,0.999971
67.789,0.999971
67.790,0.999971
67.791,0.999971
67.792,0.999971
67.793,0.999971
67.794,0.999971
67.795,0.999971
67.796,0.999971
67.797,0.999971
67.798,0.999971
67.799,0.999971
67.800,0.999971
67.801,0.999971
67.802,0.999971
67.803,0.999971
67.804,0.999971
67.805,0.999971
67.806,0.999972
67.807,0.999972
67.808,0.999972
67.809,0.999972
67.810,0.999972
67.811,0.999972
67.812,0.999972
67.813,0.999972
67.814,0.999972
67.815,0.999972
67.816,0.999972
67.817,0.999972
67.818,0.999972
67.819,0.999972
67.820,0.999972
67.821,0.999972
67.822,0.999972
67.823,0.999972
67.824,0.999972
67.825,0.999972
67.826,0.999972
67.827,0.999972
67.828,0.999972
67.829,0.999972
67.830,0.999972
67.831,0.999972
67.832,0.999972
67.833,0.999972
67.834,0.999972
67.835,0.999972
67.836,0.999972
67.837,0.999972
67.838,0.999972
67.839,0.999972
67.840,0.999972
67.841,0.999972
67.842,0.999972
67.843,0.999973
67.844,0.999973
67.845,0.999973
67.846,0.999973
67.847,0.999973
67.848,0.999973
67.849,0.999973
67.850,0.999973
67.851,0.999973
67.852,0.999973
67.853,0.999973
67.854,0.999973
67.855,0.999973
67.856,0.999973
67.857,0.999973
67.858,0.999973
67.859,0.999973
67.860,0.999973
67.861,0.999973
67.862,0.999973
67.863,0.999973
67.864,0.999973
67.865,0.999973
67.866,0.999973
67.867,0.999973
67.868,0.999973
67.869,0.999973
67.870,0.999973
67.871,0.999973
67.872,0.999973
67.873,0.999973
67.874,0.999973
67.875,0.999973
67.876,0.999973
67.877,0.999973
67.878,0.999973
67.879,0.999973
67.880,0.999973
67.881,0.999974
67.882,0.999974
67.883,0.999974
67.884,0.999974
67.885,0.999974
67.886,0.999974
67.887,0.999974
67.888,0.999974
67.889,0.999974
67.890,0.999974
67.891,0.999974
67.892,0.999974
67.893,0.999974
67.894,0.999974
67.895,0.999974
67.896,0.999974
67.897,0.999974
67.898,0.999974
67.899,0.999974
67.900,0.999974
67.901,0.999974
67.902,0.999974
67.903,0.999974
67.904,0.999974
67.905,0.999974
67.906,0.999974
67.907,0.999974
67.908,0.999974
67.909,0.999974
67.910,0.999974
67.911,0.999974
67.912,0.999974
67.913,0.999974
67.914,0.999974
67.915,0.999974
67.916,0.999974
67.917,0.999974
67.918,0.999974
67.919,0.999974
67.920,0.999974
67.921,0.999975
67.922,0.999975
67.923,0.999975
67.924,0.999975
67.925,0.999975
67.926,0.999975
67.927,0.999975
67.928,0.999975
67.929,0.999975
67.930,0.999975
67.931,0.999975
67.932,0.999975
67.933,0.999975
67.934,0.999975
67.935,0.999975
67.936,0.999975
67.937,0.999975
67.938,0.999975
67.939,0.999975
67.940,0.999975
67.941,0.999975
67.942,0.999975
67.943,0.999975
67.944,0.999975
67.945,0.999975
67.946,0.999975
67.947,0.999975
67.948,0.999975
67.949,0.999975
67.950,0.999975
67.951,0.999975
67.952,0.999975
67.953,0.999975
67.954,0.999975
67.955,0.999975
67.956,0.999975
67.957,0.999975
67.958,0.999975
67.959,0.999975
67.960,0.999975
67.961,0.999975
67.962,0.999976
67.963,0.999976
67.964,0.999976
67.965,0.999976
67.966,0.999976
67.967,0.999976
67.968,0.999976
67.969,0.999976
67.970,0.999976
67.971,0.999976
67.972,0.999976
67.973,0.999976
67.974,0.999976
67.975,0.999976
67.976,0.999976
67.977,0.999976
67.978,0.999976
67.979,0.999976
67.980,0.999976
67.981,0.999976
67.982,0.999976
67.983,0.999976
67.984,0.999976
67.985,0.999976
67.986,0.999976
67.987,0.999976
67.988,0.999976
67.989,0.999976
67.990,0.999976
67.991,0.999976
67.992,0.999976
67.993,0.999976
67.994,0.999976
67.995,0.999976
67.996,0.999976
67.997,0.999976
67.998,0.999976
67.999,0.999976
68.000,0.999976